SpectraSuite Data File
++++++++++++++++++++++++++++++++++++
Date: Wed Jul 27 14:15:58 EEST 2016
User: OO Maya
Dark Spectrum Present: No
Reference Spectrum Present: No
Number of Sampled Component Spectra: 1
Spectrometers: MAYP11278
Integration Time (usec): 15000000 (MAYP11278)
Spectra Averaged: 1 (MAYP11278)
Boxcar Smoothing: 0 (MAYP11278)
Correct for Electrical Dark: No (MAYP11278)
Strobe/Lamp Enabled: No (MAYP11278)
Correct for Detector Non-linearity: Yes (MAYP11278)
Correct for Stray Light: No (MAYP11278)
Number of Pixels in Processed Spectrum: 2068
>>>>>Begin Processed Spectral Data<<<<<
187,82	2338,66
188,30	2254,85
188,78	2217,93
189,26	2230,90
189,73	16730,53
190,21	18523,93
190,69	19189,45
191,17	19695,68
191,64	20654,30
192,12	19799,30
192,60	19147,04
193,07	18605,50
193,55	19685,32
194,03	19399,51
194,51	20004,55
194,98	19428,49
195,46	20775,88
195,94	19363,28
196,42	19752,66
196,89	22543,92
197,37	19590,02
197,85	18752,16
198,32	19227,73
198,80	18713,94
199,28	20061,59
199,76	20584,70
200,23	19199,79
200,71	19502,00
201,19	20579,51
201,66	20589,90
202,14	20349,00
202,62	18646,81
203,09	20057,44
203,57	18847,22
204,05	20921,41
204,53	21077,40
205,00	19055,00
205,48	19186,35
205,96	21347,95
206,43	19362,25
206,91	20038,77
207,39	22742,40
207,86	20050,18
208,34	20505,77
208,82	19386,05
209,29	20758,21
209,77	20488,12
210,25	19766,13
210,72	19794,11
211,20	20143,53
211,68	19858,37
212,15	19196,69
212,63	21813,56
213,11	20506,81
213,58	19401,58
214,06	21665,59
214,53	20212,01
215,01	21626,00
215,49	20285,68
215,96	20645,99
216,44	20543,16
216,92	20546,27
217,39	19206,00
217,87	19611,77
218,35	21246,99
218,82	18616,86
219,30	19291,87
219,77	19426,42
220,25	20093,74
220,73	22578,38
221,20	19503,03
221,68	21088,84
222,15	19137,73
222,63	21003,56
223,11	19680,14
223,58	21005,64
224,06	19782,71
224,53	19519,60
225,01	19136,70
225,49	19970,33
225,96	19297,05
226,44	20116,56
226,91	21041,00
227,39	19808,62
227,87	21301,11
228,34	20729,11
228,82	20686,51
229,29	19792,04
229,77	19906,05
230,24	19668,74
230,72	20897,50
231,20	20712,49
231,67	20191,26
232,15	20311,63
232,62	19252,56
233,10	20358,34
233,57	20480,85
234,05	24247,99
234,53	20577,43
235,00	19651,13
235,48	19274,28
235,95	18987,79
236,43	21152,30
236,90	22654,64
237,38	19729,87
237,85	20458,00
238,33	20390,52
238,80	20422,70
239,28	20020,11
239,75	19001,23
240,23	20834,08
240,71	21659,33
241,18	20587,82
241,66	20065,74
242,13	21261,56
242,61	21590,58
243,08	19094,29
243,56	19389,16
244,03	21110,69
244,51	21683,30
244,98	19891,54
245,46	21800,01
245,93	65190,41
246,41	19014,67
246,88	20215,12
247,36	20129,01
247,83	20307,48
248,31	20837,20
248,78	18719,11
249,26	20423,74
249,73	21083,64
250,21	20626,25
250,68	21953,26
251,16	20214,08
251,63	22645,23
252,10	21703,10
252,58	19750,59
253,05	21723,94
253,53	20400,90
254,00	20158,06
254,48	20345,88
254,95	20557,70
255,43	21205,36
255,90	19655,28
256,38	20562,89
256,85	21037,88
257,33	21499,96
257,80	23901,96
258,27	20751,98
258,75	19860,44
259,22	20533,81
259,70	21141,90
260,17	22217,16
260,65	20500,58
261,12	19905,02
261,59	21821,90
262,07	19680,14
262,54	20745,74
263,02	20111,38
263,49	19139,80
263,97	21238,66
264,44	21796,89
264,91	20037,74
265,39	20583,66
265,86	20948,44
266,34	21153,34
266,81	20160,13
267,28	20425,82
267,76	20772,76
268,23	21107,57
268,71	18842,05
269,18	19726,76
269,65	20001,44
270,13	21030,60
270,60	22086,75
271,08	20399,86
271,55	20558,74
272,02	19366,39
272,50	19649,06
272,97	18823,45
273,44	20682,36
273,92	24722,43
274,39	21562,45
274,87	21668,71
275,34	20228,61
275,81	20456,97
276,29	21260,52
276,76	21749,99
277,23	19585,88
277,71	20579,51
278,18	19700,86
278,65	25674,02
279,13	20375,99
279,60	20304,36
280,07	25359,38
280,55	21864,64
281,02	24696,17
281,50	20191,26
281,97	22176,47
282,44	20651,19
282,91	20742,62
283,39	21532,25
283,86	20131,08
284,33	19947,52
284,81	21958,48
285,28	20863,19
285,75	21415,62
286,23	21161,66
286,70	19627,31
287,17	21720,81
287,65	23187,81
288,12	20688,59
288,59	21856,30
289,07	19197,72
289,54	22889,77
290,01	20307,48
290,48	21595,79
290,96	20542,12
291,43	21608,29
291,90	23790,88
292,38	20558,74
292,85	22299,61
293,32	20816,41
293,79	21853,17
294,27	21813,56
294,74	20622,10
295,21	21160,62
295,69	21342,74
296,16	23452,58
296,63	23164,80
297,10	22145,17
297,58	21756,24
298,05	21589,54
298,52	20902,69
298,99	23399,20
299,47	21132,53
299,94	21738,53
300,41	20697,94
300,88	22168,12
301,36	22317,35
301,83	22257,86
302,30	20212,01
302,77	21988,72
303,25	21976,20
303,72	20311,63
304,19	20773,80
304,66	20413,36
305,13	21233,46
305,61	21548,91
306,08	21330,25
306,55	21955,35
307,02	20926,61
307,49	20727,04
307,97	21428,11
308,44	20810,18
308,91	22104,49
309,38	22337,18
309,86	21535,37
310,33	21087,80
310,80	21647,87
311,27	20388,44
311,74	22168,12
312,21	20906,85
312,69	23021,51
313,16	20246,25
313,63	20557,70
314,10	21185,59
314,57	20328,24
315,05	20183,99
315,52	21861,51
315,99	21736,44
316,46	21217,85
316,93	21880,28
317,40	21175,19
317,88	24400,13
318,35	20784,19
318,82	20728,07
319,29	19473,01
319,76	21207,45
320,23	23113,54
320,70	21923,02
321,18	20307,48
321,65	18852,39
322,12	19830,39
322,59	22858,41
323,06	20596,13
323,53	23744,78
324,00	19591,06
324,48	21019,16
324,95	20553,54
325,42	20110,34
325,89	20355,22
326,36	20117,60
326,83	21345,87
327,30	21296,95
327,77	21255,31
328,24	20945,32
328,72	20590,94
329,19	20221,35
329,66	20306,44
330,13	19914,35
330,60	21543,70
331,07	21335,46
331,54	22679,71
332,01	19915,38
332,48	22982,82
332,95	21551,00
333,43	21183,51
333,90	22289,17
334,37	20995,24
334,84	21644,75
335,31	25471,95
335,78	19598,31
336,25	20662,62
336,72	20489,15
337,19	21242,83
337,66	20469,43
338,13	20351,07
338,60	22542,87
339,07	21938,66
339,54	19554,81
340,01	19846,97
340,49	19661,49
340,96	21254,27
341,43	21976,20
341,90	20257,66
342,37	20979,64
342,84	21666,63
343,31	21089,88
343,78	20413,36
344,25	20731,19
344,72	20133,16
345,19	20635,60
345,66	21519,75
346,13	20356,26
346,60	19826,24
347,07	22614,94
347,54	20201,63
348,01	22061,72
348,48	21049,32
348,95	19379,84
349,42	20722,88
349,89	21602,04
350,36	20806,02
350,83	19681,17
351,30	21159,58
351,77	22994,32
352,24	21292,78
352,71	20604,44
353,18	20932,85
353,65	21350,03
354,12	20964,04
354,59	21641,62
355,06	21057,64
355,53	22763,30
356,00	20162,21
356,47	22768,53
356,94	19898,80
357,41	24453,65
357,88	21491,63
358,35	19534,10
358,82	20031,51
359,28	20269,08
359,75	20350,03
360,22	21763,54
360,69	22661,95
361,16	20290,87
361,63	20692,75
362,10	20760,29
362,57	20608,59
363,04	20606,52
363,51	23480,85
363,98	21498,92
364,45	19955,82
364,92	21613,49
365,39	20293,99
365,86	19612,81
366,32	21115,89
366,79	20818,49
367,26	42973,39
367,73	19058,10
368,20	19886,36
368,67	21769,79
369,14	19846,97
369,61	21882,36
370,08	21176,23
370,55	20426,86
371,02	30084,77
371,48	21326,09
371,95	20078,18
372,42	19334,30
372,89	19885,32
373,36	20751,98
373,83	19605,56
374,30	20030,48
374,77	21246,99
375,23	19196,69
375,70	22619,12
376,17	20401,94
376,64	19563,09
377,11	19693,61
377,58	21536,41
378,05	20955,72
378,51	20779,00
378,98	20868,39
379,45	20859,03
379,92	21531,21
380,39	23913,49
380,86	21042,04
381,33	22678,67
381,79	22450,98
382,26	19674,96
382,73	21184,55
383,20	20632,49
383,67	22132,65
384,14	20773,80
384,60	27285,56
385,07	21075,32
385,54	20575,35
386,01	20643,91
386,48	22920,08
386,94	20171,54
387,41	19891,54
387,88	21991,84
388,35	21522,87
388,82	22531,38
389,28	20307,48
389,75	21879,24
390,22	21418,74
390,69	21860,47
391,16	21443,73
391,62	21318,80
392,09	21587,45
392,56	21016,04
393,03	20976,52
393,50	24258,48
393,96	21339,62
394,43	22669,26
394,90	20455,93
395,37	22452,02
395,83	27408,14
396,30	20221,35
396,77	22410,26
397,24	22731,95
397,70	20846,56
398,17	21918,85
398,64	21480,18
399,11	21177,27
399,57	23565,67
400,04	21210,57
400,51	22641,06
400,98	22752,85
401,44	23668,31
401,91	24265,82
402,38	25481,42
402,84	28370,98
403,31	37581,50
403,78	44868,19
404,25	62486,94
404,71	55484,54
405,18	34982,37
405,65	28625,25
406,12	30465,52
406,58	31479,54
407,05	34940,48
407,52	34795,50
407,98	35143,52
408,45	35978,11
408,92	35785,46
409,38	40283,00
409,85	40256,94
410,32	44881,34
410,78	45896,92
411,25	50676,32
411,72	52475,31
412,18	54647,91
412,65	61474,14
413,12	64352,29
413,59	68393,61
414,05	68393,61
414,52	68393,61
414,98	68393,61
415,45	68393,61
415,92	68393,61
416,38	68393,61
416,85	68393,61
417,32	68393,61
417,78	68393,61
418,25	68393,61
418,72	68393,61
419,18	68393,61
419,65	68393,61
420,12	68393,61
420,58	68393,61
421,05	68393,61
421,51	68393,61
421,98	68393,61
422,45	68393,61
422,91	68393,61
423,38	68393,61
423,85	68393,61
424,31	68393,61
424,78	68393,61
425,24	68393,61
425,71	68393,61
426,18	68393,61
426,64	68393,61
427,11	68393,61
427,57	68393,61
428,04	68393,61
428,51	68393,61
428,97	68393,61
429,44	68393,61
429,90	68393,61
430,37	68393,61
430,83	68393,61
431,30	68393,61
431,77	68393,61
432,23	68393,61
432,70	68393,61
433,16	68393,61
433,63	68393,61
434,09	68393,61
434,56	68393,61
435,03	68393,61
435,49	68393,61
435,96	68393,61
436,42	68393,61
436,89	68393,61
437,35	68393,61
437,82	68393,61
438,28	68393,61
438,75	68393,61
439,21	68393,61
439,68	68393,61
440,14	68393,61
440,61	68393,61
441,07	68393,61
441,54	68393,61
442,00	68393,61
442,47	68393,61
442,94	68393,61
443,40	68393,61
443,87	68393,61
444,33	68393,61
444,80	68393,61
445,26	68393,61
445,73	68393,61
446,19	68393,61
446,65	68393,61
447,12	68393,61
447,58	68393,61
448,05	68393,61
448,51	68393,61
448,98	68393,61
449,44	68393,61
449,91	68393,61
450,37	68393,61
450,84	68393,61
451,30	68393,61
451,77	68393,61
452,23	68393,61
452,70	68393,61
453,16	68393,61
453,62	68393,61
454,09	68393,61
454,55	68393,61
455,02	68393,61
455,48	68393,61
455,95	68393,61
456,41	68393,61
456,88	68393,61
457,34	68393,61
457,80	68393,61
458,27	68393,61
458,73	68393,61
459,20	68393,61
459,66	68393,61
460,13	68393,61
460,59	68393,61
461,05	68393,61
461,52	68393,61
461,98	68393,61
462,45	68393,61
462,91	68393,61
463,37	68393,61
463,84	68393,61
464,30	68393,61
464,76	68393,61
465,23	68393,61
465,69	68393,61
466,16	68393,61
466,62	68393,61
467,08	68393,61
467,55	68393,61
468,01	68393,61
468,48	68393,61
468,94	68393,61
469,40	68393,61
469,87	68393,61
470,33	68393,61
470,79	68393,61
471,26	68393,61
471,72	68393,61
472,18	68393,61
472,65	68393,61
473,11	68393,61
473,57	68393,61
474,04	68393,61
474,50	68393,61
474,96	68393,61
475,43	68393,61
475,89	68393,61
476,35	68393,61
476,82	68393,61
477,28	68393,61
477,74	68393,61
478,21	68393,61
478,67	68393,61
479,13	68393,61
479,59	68393,61
480,06	68393,61
480,52	68393,61
480,98	68393,61
481,45	68393,61
481,91	68393,61
482,37	68393,61
482,84	68393,61
483,30	68393,61
483,76	68393,61
484,22	68393,61
484,69	68393,61
485,15	68393,61
485,61	68393,61
486,07	68393,61
486,54	68393,61
487,00	68393,61
487,46	68393,61
487,92	68393,61
488,39	68393,61
488,85	68393,61
489,31	68393,61
489,77	68393,61
490,24	68393,61
490,70	68393,61
491,16	68393,61
491,62	68393,61
492,09	68393,61
492,55	68393,61
493,01	68393,61
493,47	68393,61
493,94	68393,61
494,40	68393,61
494,86	68393,61
495,32	68393,61
495,78	68393,61
496,25	68393,61
496,71	68393,61
497,17	68393,61
497,63	68393,61
498,09	68393,61
498,56	68393,61
499,02	68393,61
499,48	68393,61
499,94	68393,61
500,40	68393,61
500,87	68393,61
501,33	68393,61
501,79	68393,61
502,25	68393,61
502,71	68393,61
503,17	68393,61
503,64	68393,61
504,10	68393,61
504,56	68393,61
505,02	68393,61
505,48	68393,61
505,94	68393,61
506,40	68393,61
506,87	68393,61
507,33	68393,61
507,79	68393,61
508,25	68393,61
508,71	68393,61
509,17	68393,61
509,63	68393,61
510,10	68393,61
510,56	68393,61
511,02	68393,61
511,48	68393,61
511,94	68393,61
512,40	68393,61
512,86	68393,61
513,32	68393,61
513,78	68393,61
514,25	68393,61
514,71	68393,61
515,17	68393,61
515,63	68393,61
516,09	68393,61
516,55	68393,61
517,01	68393,61
517,47	68393,61
517,93	68393,61
518,39	68393,61
518,85	68393,61
519,32	68393,61
519,78	68393,61
520,24	68393,61
520,70	68393,61
521,16	68393,61
521,62	68393,61
522,08	68393,61
522,54	68393,61
523,00	68393,61
523,46	68393,61
523,92	68393,61
524,38	68393,61
524,84	68393,61
525,30	68393,61
525,76	68393,61
526,22	68393,61
526,68	68393,61
527,14	68393,61
527,60	68393,61
528,06	68393,61
528,52	68393,61
528,98	68393,61
529,44	68393,61
529,90	68393,61
530,36	68393,61
530,82	68393,61
531,28	68393,61
531,74	68393,61
532,20	68393,61
532,66	68393,61
533,12	68393,61
533,58	68393,61
534,04	68393,61
534,50	68393,61
534,96	68393,61
535,42	68393,61
535,88	68393,61
536,34	68393,61
536,80	68393,61
537,26	68393,61
537,72	68393,61
538,18	68393,61
538,64	68393,61
539,10	68393,61
539,56	68393,61
540,02	68393,61
540,48	68393,61
540,94	68393,61
541,40	68393,61
541,86	68393,61
542,32	68393,61
542,78	68393,61
543,24	68393,61
543,69	68393,61
544,15	68393,61
544,61	68393,61
545,07	68393,61
545,53	68393,61
545,99	68393,61
546,45	68393,61
546,91	68393,61
547,37	68393,61
547,83	68393,61
548,29	68393,61
548,74	68393,61
549,20	68393,61
549,66	68393,61
550,12	68393,61
550,58	68393,61
551,04	68393,61
551,50	68393,61
551,96	68393,61
552,42	68393,61
552,87	68393,61
553,33	68393,61
553,79	68393,61
554,25	68393,61
554,71	68393,61
555,17	68393,61
555,63	68393,61
556,08	68393,61
556,54	68393,61
557,00	68393,61
557,46	68393,61
557,92	68393,61
558,38	68393,61
558,83	68393,61
559,29	68393,61
559,75	68393,61
560,21	68393,61
560,67	68393,61
561,13	68393,61
561,58	68393,61
562,04	68393,61
562,50	68393,61
562,96	68393,61
563,42	68393,61
563,87	68393,61
564,33	68393,61
564,79	68393,61
565,25	68393,61
565,71	68393,61
566,16	68393,61
566,62	68393,61
567,08	68393,61
567,54	68393,61
568,00	68393,61
568,45	68393,61
568,91	68393,61
569,37	68393,61
569,83	68393,61
570,28	68393,61
570,74	68393,61
571,20	68393,61
571,66	68393,61
572,11	68393,61
572,57	68393,61
573,03	68393,61
573,49	68393,61
573,94	68393,61
574,40	68393,61
574,86	68393,61
575,32	68393,61
575,77	68393,61
576,23	68393,61
576,69	68393,61
577,15	68393,61
577,60	68393,61
578,06	68393,61
578,52	68393,61
578,97	68393,61
579,43	68393,61
579,89	68393,61
580,34	68393,61
580,80	68393,61
581,26	68393,61
581,72	68393,61
582,17	68393,61
582,63	68393,61
583,09	68393,61
583,54	68393,61
584,00	68393,61
584,46	68393,61
584,91	68393,61
585,37	68393,61
585,83	68393,61
586,28	68393,61
586,74	68393,61
587,20	68393,61
587,65	68393,61
588,11	68393,61
588,57	68393,61
589,02	68393,61
589,48	68393,61
589,94	68393,61
590,39	68393,61
590,85	68393,61
591,30	68393,61
591,76	68393,61
592,22	68393,61
592,67	68393,61
593,13	68393,61
593,59	68393,61
594,04	68393,61
594,50	68393,61
594,95	68393,61
595,41	68393,61
595,87	68393,61
596,32	68393,61
596,78	68393,61
597,23	68393,61
597,69	68393,61
598,15	68393,61
598,60	68393,61
599,06	68393,61
599,51	68393,61
599,97	68393,61
600,43	68393,61
600,88	68393,61
601,34	68393,61
601,79	68393,61
602,25	68393,61
602,70	68393,61
603,16	68393,61
603,61	68393,61
604,07	68393,61
604,53	68393,61
604,98	68393,61
605,44	68393,61
605,89	68393,61
606,35	68393,61
606,80	68393,61
607,26	68393,61
607,71	68393,61
608,17	68393,61
608,62	68393,61
609,08	68393,61
609,53	68393,61
609,99	68393,61
610,44	68393,61
610,90	68393,61
611,35	68393,61
611,81	68393,61
612,26	68393,61
612,72	68393,61
613,17	68393,61
613,63	68393,61
614,08	68393,61
614,54	68393,61
614,99	68393,61
615,45	68393,61
615,90	68393,61
616,36	68393,61
616,81	68393,61
617,27	68393,61
617,72	68393,61
618,18	68393,61
618,63	68393,61
619,09	68393,61
619,54	68393,61
619,99	68393,61
620,45	68393,61
620,90	68393,61
621,36	68393,61
621,81	68393,61
622,27	68393,61
622,72	68393,61
623,18	68393,61
623,63	68393,61
624,08	68393,61
624,54	68393,61
624,99	68393,61
625,45	68393,61
625,90	68393,61
626,35	68393,61
626,81	68393,61
627,26	68393,61
627,72	68393,61
628,17	68393,61
628,62	68393,61
629,08	68393,61
629,53	68393,61
629,99	68393,61
630,44	68393,61
630,89	68393,61
631,35	68393,61
631,80	68393,61
632,26	68393,61
632,71	68393,61
633,16	68393,61
633,62	68393,61
634,07	68393,61
634,52	68393,61
634,98	68393,61
635,43	68393,61
635,88	68393,61
636,34	68393,61
636,79	68393,61
637,24	68393,61
637,70	68393,61
638,15	68393,61
638,60	68393,61
639,06	68393,61
639,51	68393,61
639,96	68393,61
640,42	68393,61
640,87	68393,61
641,32	68393,61
641,78	68393,61
642,23	68393,61
642,68	68393,61
643,14	68393,61
643,59	68393,61
644,04	68393,61
644,49	68393,61
644,95	68393,61
645,40	68393,61
645,85	68393,61
646,31	68393,61
646,76	68393,61
647,21	68393,61
647,66	68393,61
648,12	68393,61
648,57	68393,61
649,02	68393,61
649,47	68393,61
649,93	68393,61
650,38	68393,61
650,83	68393,61
651,28	68393,61
651,74	68393,61
652,19	68393,61
652,64	68393,61
653,09	68393,61
653,55	68393,61
654,00	68393,61
654,45	68393,61
654,90	68393,61
655,35	68393,61
655,81	68393,61
656,26	68393,61
656,71	68393,61
657,16	68393,61
657,62	68393,61
658,07	68393,61
658,52	68393,61
658,97	68393,61
659,42	68393,61
659,88	68393,61
660,33	68393,61
660,78	68393,61
661,23	68393,61
661,68	68393,61
662,13	68393,61
662,59	68393,61
663,04	68393,61
663,49	68393,61
663,94	68393,61
664,39	68393,61
664,84	68393,61
665,30	68393,61
665,75	68393,61
666,20	68393,61
666,65	68393,61
667,10	68393,61
667,55	68393,61
668,00	68393,61
668,46	68393,61
668,91	68393,61
669,36	68393,61
669,81	68393,61
670,26	68393,61
670,71	68393,61
671,16	68393,61
671,61	68393,61
672,06	68393,61
672,52	68393,61
672,97	68393,61
673,42	68393,61
673,87	68393,61
674,32	68393,61
674,77	68393,61
675,22	68393,61
675,67	68393,61
676,12	68393,61
676,57	68393,61
677,02	68393,61
677,47	68393,61
677,93	68393,61
678,38	68393,61
678,83	68393,61
679,28	68393,61
679,73	68393,61
680,18	68393,61
680,63	68393,61
681,08	68393,61
681,53	68393,61
681,98	68393,61
682,43	68393,61
682,88	68393,61
683,33	68393,61
683,78	68393,61
684,23	68393,61
684,68	68393,61
685,13	68393,61
685,58	68393,61
686,03	68393,61
686,48	68393,61
686,93	68393,61
687,38	68393,61
687,83	68393,61
688,28	68393,61
688,73	68393,61
689,18	68393,61
689,63	68393,61
690,08	68393,61
690,53	68393,61
690,98	68393,61
691,43	68393,61
691,88	68393,61
692,33	68393,61
692,78	68393,61
693,23	68393,61
693,68	68393,61
694,13	68393,61
694,58	68393,61
695,03	68393,61
695,48	68393,61
695,93	68393,61
696,38	68393,61
696,83	68393,61
697,28	68393,61
697,72	68393,61
698,17	68393,61
698,62	68393,61
699,07	68393,61
699,52	68393,61
699,97	68393,61
700,42	68393,61
700,87	68393,61
701,32	68393,61
701,77	68393,61
702,22	68393,61
702,67	68393,61
703,11	68393,61
703,56	68393,61
704,01	68393,61
704,46	68393,61
704,91	68393,61
705,36	68393,61
705,81	68393,61
706,26	68393,61
706,70	68393,61
707,15	68393,61
707,60	68393,61
708,05	68393,61
708,50	68393,61
708,95	68393,61
709,40	68393,61
709,84	68393,61
710,29	68393,61
710,74	68393,61
711,19	68393,61
711,64	68393,61
712,09	68393,61
712,53	68393,61
712,98	68393,61
713,43	68393,61
713,88	68393,61
714,33	68393,61
714,78	68393,61
715,22	68393,61
715,67	68393,61
716,12	68393,61
716,57	68393,61
717,02	68393,61
717,46	68393,61
717,91	68393,61
718,36	68393,61
718,81	68393,61
719,26	68393,61
719,70	68393,61
720,15	68393,61
720,60	68393,61
721,05	68393,61
721,49	68393,61
721,94	68393,61
722,39	68393,61
722,84	68393,61
723,28	68393,61
723,73	68393,61
724,18	68393,61
724,63	68393,61
725,07	68393,61
725,52	68393,61
725,97	68393,61
726,42	68393,61
726,86	68393,61
727,31	68393,61
727,76	68393,61
728,21	68393,61
728,65	68393,61
729,10	68393,61
729,55	68393,61
729,99	68393,61
730,44	68393,61
730,89	68393,61
731,33	68393,61
731,78	68393,61
732,23	68393,61
732,68	68393,61
733,12	68393,61
733,57	68393,61
734,02	68393,61
734,46	68393,61
734,91	68393,61
735,36	68393,61
735,80	68393,61
736,25	68393,61
736,70	68393,61
737,14	68393,61
737,59	68393,61
738,04	68393,61
738,48	68393,61
738,93	68393,61
739,37	68393,61
739,82	68393,61
740,27	68393,61
740,71	68393,61
741,16	68393,61
741,61	68393,61
742,05	68393,61
742,50	68393,61
742,94	68393,61
743,39	68393,61
743,84	68393,61
744,28	68393,61
744,73	68393,61
745,18	68393,61
745,62	68393,61
746,07	68393,61
746,51	68393,61
746,96	68393,61
747,40	68393,61
747,85	68393,61
748,30	68393,61
748,74	68393,61
749,19	68393,61
749,63	68393,61
750,08	68393,61
750,52	68393,61
750,97	68393,61
751,42	68393,61
751,86	68393,61
752,31	68393,61
752,75	68393,61
753,20	68393,61
753,64	68393,61
754,09	68393,61
754,53	68393,61
754,98	68393,61
755,42	68393,61
755,87	68393,61
756,31	68393,61
756,76	68393,61
757,20	68393,61
757,65	68393,61
758,09	68393,61
758,54	68393,61
758,98	68393,61
759,43	68393,61
759,87	68393,61
760,32	68393,61
760,76	68393,61
761,21	68393,61
761,65	68393,61
762,10	68393,61
762,54	68393,61
762,99	68393,61
763,43	68393,61
763,88	68393,61
764,32	68393,61
764,77	68393,61
765,21	68393,61
765,66	68393,61
766,10	68393,61
766,54	68393,61
766,99	68393,61
767,43	68393,61
767,88	68393,61
768,32	68393,61
768,77	68393,61
769,21	68393,61
769,66	68393,61
770,10	68393,61
770,54	68393,61
770,99	68393,61
771,43	68393,61
771,88	68393,61
772,32	68393,61
772,76	68393,61
773,21	68393,61
773,65	68393,61
774,10	68393,61
774,54	68393,61
774,98	68393,61
775,43	68393,61
775,87	68393,61
776,31	68393,61
776,76	68393,61
777,20	68393,61
777,65	68393,61
778,09	68393,61
778,53	68393,61
778,98	68393,61
779,42	68393,61
779,86	68393,61
780,31	68393,61
780,75	68393,61
781,19	68393,61
781,64	68393,61
782,08	68393,61
782,52	68393,61
782,97	68393,61
783,41	68393,61
783,85	68393,61
784,30	68393,61
784,74	68393,61
785,18	68393,61
785,63	68393,61
786,07	68393,61
786,51	68393,61
786,95	68393,61
787,40	68393,61
787,84	68393,61
788,28	68393,61
788,73	68393,61
789,17	68393,61
789,61	68393,61
790,05	68393,61
790,50	68393,61
790,94	68393,61
791,38	68393,61
791,82	68393,61
792,27	68393,61
792,71	68393,61
793,15	68393,61
793,59	68393,61
794,04	68393,61
794,48	68393,61
794,92	68393,61
795,36	68393,61
795,81	68393,61
796,25	68393,61
796,69	68393,61
797,13	68393,61
797,57	68393,61
798,02	68393,61
798,46	68393,61
798,90	68393,61
799,34	68393,61
799,79	68393,61
800,23	68393,61
800,67	68393,61
801,11	68393,61
801,55	68393,61
801,99	68393,61
802,44	68393,61
802,88	68393,61
803,32	68393,61
803,76	68393,61
804,20	68393,61
804,64	68393,61
805,09	68393,61
805,53	68393,61
805,97	68393,61
806,41	68393,61
806,85	68393,61
807,29	68393,61
807,74	68393,61
808,18	68393,61
808,62	68393,61
809,06	68393,61
809,50	68393,61
809,94	68393,61
810,38	68393,61
810,82	68393,61
811,27	68393,61
811,71	68393,61
812,15	68393,61
812,59	68393,61
813,03	68393,61
813,47	68393,61
813,91	68393,61
814,35	68393,61
814,79	68393,61
815,23	68393,61
815,67	68393,61
816,12	68393,61
816,56	68393,61
817,00	68393,61
817,44	68393,61
817,88	68393,61
818,32	68393,61
818,76	68393,61
819,20	68393,61
819,64	68393,61
820,08	68393,61
820,52	68393,61
820,96	68393,61
821,40	68393,61
821,84	68393,61
822,28	68393,61
822,72	68393,61
823,16	68393,61
823,60	68393,61
824,04	68393,61
824,48	68393,61
824,92	68393,61
825,36	68393,61
825,80	68393,61
826,24	68393,61
826,68	68393,61
827,12	68393,61
827,56	68393,61
828,00	68393,61
828,44	66598,92
828,88	68032,63
829,32	66630,11
829,76	64486,48
830,20	66294,04
830,64	62979,89
831,08	65081,73
831,52	62366,86
831,96	61389,77
832,40	58692,08
832,84	59543,96
833,28	59493,79
833,72	61394,27
834,16	60378,19
834,60	58915,71
835,04	58135,21
835,48	59047,05
835,91	56643,06
836,35	56072,50
836,79	54712,08
837,23	55317,40
837,67	53173,79
838,11	52635,54
838,55	53464,54
838,99	53404,84
839,43	57278,33
839,87	60336,80
840,30	56988,90
840,74	62347,61
841,18	60621,08
841,62	59177,34
842,06	56250,83
842,50	61077,42
842,94	56169,97
843,38	50731,50
843,81	49512,50
844,25	47635,56
844,69	46244,96
845,13	47381,43
845,57	46240,57
846,01	47416,63
846,45	45993,52
846,88	45782,78
847,32	46574,51
847,76	45631,35
848,20	45520,55
848,64	45243,07
849,08	45934,24
849,51	46123,07
849,95	45021,62
850,39	43301,12
850,83	45115,89
851,27	43209,33
851,70	43707,78
852,14	46094,53
852,58	42394,89
853,02	41022,23
853,46	41950,00
853,89	39926,84
854,33	42286,91
854,77	39774,90
855,21	40105,98
855,65	41688,48
856,08	42093,89
856,52	39408,27
856,96	39292,26
857,40	38311,15
857,83	36462,75
858,27	38592,50
858,71	35205,85
859,15	35930,74
859,58	36482,15
860,02	36846,52
860,46	37238,15
860,89	37861,34
861,33	35989,95
861,77	36666,46
862,21	36567,29
862,64	35532,67
863,08	35136,00
863,52	35956,58
863,95	33949,06
864,39	34184,92
864,83	34223,53
865,27	32685,97
865,70	34087,35
866,14	32502,14
866,58	35071,53
867,01	33302,11
867,45	34138,81
867,89	33351,35
868,32	32853,83
868,76	33725,10
869,20	33027,10
869,63	34121,66
870,07	35082,28
870,51	30365,52
870,94	30954,15
871,38	31015,93
871,82	29923,20
872,25	30810,38
872,69	31554,18
873,13	30749,70
873,56	32156,04
874,00	31893,44
874,43	30570,87
874,87	29674,58
875,31	32019,38
875,74	28922,09
876,18	30815,71
876,61	29720,26
877,05	29594,92
877,49	29492,98
877,92	29057,85
878,36	29162,88
878,79	28490,68
879,23	30680,50
879,67	27610,06
880,10	27298,23
880,54	28125,31
880,97	28720,65
881,41	29636,34
881,84	28425,00
882,28	28626,31
882,72	28264,01
883,15	28351,91
883,59	27249,63
884,02	28758,81
884,46	28116,84
884,89	28151,78
885,33	28459,96
885,76	26790,27
886,20	26353,54
886,63	29124,69
887,07	26007,85
887,50	25754,03
887,94	26713,23
888,37	26207,01
888,81	30549,59
889,24	25454,06
889,68	27753,89
890,11	26246,01
890,55	27282,39
890,98	27395,46
891,42	25404,62
891,85	25927,79
892,29	25960,44
892,72	24935,69
893,16	25442,49
893,59	25988,89
894,03	25151,16
894,46	26211,23
894,90	24766,54
895,33	24341,36
895,77	25410,93
896,20	25874,07
896,63	24525,03
897,07	24331,92
897,50	24158,83
897,94	25789,83
898,37	26949,67
898,81	24514,53
899,24	24409,57
899,68	24281,56
900,11	26031,03
900,54	25366,74
900,98	24113,74
901,41	26760,72
901,85	26777,61
902,28	23225,48
902,71	23498,65
903,15	26419,97
903,58	23923,97
904,02	24569,12
904,45	23496,56
904,88	23670,40
905,32	22887,68
905,75	25730,86
906,18	24102,20
906,62	25196,37
907,05	24308,84
907,48	23928,17
907,92	25003,99
908,35	26024,71
908,79	23586,61
909,22	22765,39
909,65	24389,63
910,09	25343,60
910,52	27032,04
910,95	28429,24
911,38	26697,41
911,82	30916,87
912,25	32435,89
912,68	27519,13
913,12	25552,97
913,55	23963,81
913,98	22735,09
914,42	22823,92
914,85	22973,41
915,28	22751,81
915,72	24195,54
916,15	22400,86
916,58	23848,51
917,01	22220,30
917,45	23769,92
917,88	22037,73
918,31	22429,05
918,74	22247,43
919,18	23455,73
919,61	23854,80
920,04	22965,04
920,47	25939,38
920,91	25208,99
921,34	23545,77
921,77	23265,24
922,20	24496,68
922,64	24402,22
923,07	25007,15
923,50	23354,19
923,93	21019,16
924,37	22696,43
924,80	21033,72
925,23	23003,73
925,66	24750,79
926,09	21486,42
926,53	22619,12
926,96	20342,77
927,39	24657,32
927,82	21635,37
928,25	20508,89
928,69	22821,83
929,12	21042,04
929,55	22174,38
929,98	22811,38
930,41	20977,56
930,84	22154,56
931,28	19796,19
931,71	23773,07
932,14	22519,90
932,57	24740,28
933,00	21080,52
933,43	22430,09
933,86	22307,96
934,30	21944,92
934,73	21413,54
935,16	19913,31
935,59	20732,23
936,02	20094,78
936,45	21315,68
936,88	19754,74
937,31	21531,21
937,75	20017,00
938,18	20087,52
938,61	21086,76
939,04	19581,74
939,47	20569,12
939,90	21604,12
940,33	23322,79
940,76	19533,06
941,19	21512,46
941,62	19256,69
942,05	19747,48
942,48	21090,92
942,91	19077,75
943,35	18807,96
943,78	21045,16
944,21	20743,66
944,64	20813,29
945,07	20203,71
945,50	20360,41
945,93	20407,13
946,36	21715,60
946,79	19950,63
947,22	20237,95
947,65	20732,23
948,08	18889,59
948,51	18940,24
948,94	19133,59
949,37	23450,49
949,80	21663,50
950,23	19747,48
950,66	19499,93
951,09	20413,36
951,52	18728,40
951,95	21029,56
952,38	19655,28
952,81	22687,02
953,24	18862,72
953,67	19593,13
954,10	19628,34
954,53	19275,32
954,96	19702,93
955,39	20870,47
955,82	19081,88
956,25	20651,19
956,68	23824,41
957,11	18894,76
957,53	20528,62
957,96	20196,44
958,39	19315,68
958,82	19423,32
959,25	19373,63
959,68	18167,96
960,11	19859,41
960,54	20575,35
960,97	20448,66
961,40	21290,70
961,83	20997,32
962,26	19556,88
962,68	20366,64
963,11	20088,56
963,54	21271,97
963,97	21320,88
964,40	20034,62
964,83	22695,38
965,26	22064,85
965,69	21177,27
966,11	21311,52
966,54	19266,01
966,97	19533,06
967,40	21260,52
967,83	25318,36
968,26	20650,15
968,69	19773,39
969,11	20500,58
969,54	18907,16
969,97	19303,26
970,40	20580,55
970,83	19261,87
971,26	19858,37
971,68	18614,79
972,11	19097,40
972,54	19338,44
972,97	20399,86
973,40	19348,79
973,82	20553,54
974,25	19840,75
974,68	19158,42
975,11	19060,17
975,54	18876,16
975,96	19883,25
976,39	18828,62
976,82	20721,84
977,25	19898,80
977,67	19693,61
978,10	19877,03
978,53	19307,40
978,96	20957,80
979,38	20351,07
979,81	18961,95
980,24	19899,83
980,67	20955,72
981,09	19481,29
981,52	19512,35
981,95	19002,27
982,38	19399,51
982,80	18813,12
983,23	20866,31
983,66	20515,12
984,08	18558,00
984,51	17831,95
984,94	19455,41
985,37	20205,78
985,79	19062,24
986,22	18611,69
986,65	19967,22
987,07	19102,57
987,50	19718,47
987,93	19372,60
988,35	19832,46
988,78	19237,04
989,21	19079,81
989,63	20036,70
990,06	19266,01
990,49	19810,70
990,91	21698,93
991,34	18993,99
991,77	18450,64
992,19	19344,65
992,62	18785,22
993,05	18906,13
993,47	20002,48
993,90	20153,91
994,32	19688,43
994,75	19296,01
995,18	17999,91
995,60	18208,18
996,03	17630,10
996,45	20591,97
996,88	20288,80
997,31	18768,69
997,73	19529,96
998,16	18448,58
998,58	21135,65
999,01	19421,25
999,44	19396,40
999,86	20954,68
1000,29	18517,74
1000,71	19620,06
1001,14	20067,81
1001,56	19346,72
1001,99	19835,57
1002,41	19386,05
1002,84	20172,58
1003,27	18516,71
1003,69	19916,42
1004,12	19807,59
1004,54	21214,73
1004,97	19516,50
1005,39	18503,29
1005,82	20202,67
1006,24	19788,93
1006,67	19119,11
1007,09	18603,43
1007,52	19614,88
1007,94	19679,10
1008,37	24922,03
1008,79	21715,60
1009,22	21553,08
1009,64	21262,60
1010,07	21764,58
1010,49	22896,04
1010,92	22874,09
1011,34	27165,12
1011,77	26330,35
1012,19	24917,82
1012,62	28107,32
1013,04	30650,70
1013,46	29310,39
1013,89	22406,08
1014,31	23152,24
1014,74	20706,25
1015,16	21110,69
1015,59	19744,37
1016,01	21110,69
1016,44	19976,55
1016,86	34975,92
1017,28	19794,11
1017,71	18446,51
1018,13	23657,83
1018,56	21276,13
1018,98	20575,35
1019,40	19261,87
1019,83	19505,11
1020,25	20059,52
1020,68	20053,29
1021,10	20077,15
1021,52	19419,18
1021,95	24414,82
1022,37	20964,04
1022,79	20575,35
1023,22	20173,62
1023,64	19641,81
1024,07	19859,41
1024,49	20109,30
1024,91	18491,93
1025,34	18505,35
1025,76	22172,30
1026,18	20089,59
1026,61	19726,76
1027,03	19395,37
1027,45	19627,31
1027,88	18505,35
1028,30	22294,39
1028,72	19379,84
1029,15	19353,97
1029,57	19448,16
1029,99	21225,14
1030,41	18219,53
1030,84	19391,23
1031,26	20262,85
1031,68	18669,53
1032,11	20323,05
1032,53	18276,26
1032,95	18395,94
1033,37	19664,60
1033,80	20177,77
1034,22	18659,20
1034,64	21637,46
1035,06	18465,09
1035,49	18693,28
1035,91	19362,25
1036,33	17610,54
1036,75	20003,51
1037,18	20237,95
1037,60	20112,41
1038,02	20559,78
1038,44	21023,32
1038,87	18905,10
1039,29	18850,32
1039,71	19603,49
1040,13	18634,41
1040,55	20980,68
1040,98	20683,39
1041,40	19989,00
1041,82	20310,59
1042,24	19187,38
1042,66	20071,96
1043,09	18313,40
1043,51	19059,13
1043,93	18830,69
1044,35	17929,83
1044,77	19089,12
1045,20	19889,47
1045,62	18248,41
1046,04	19661,49
1046,46	20015,96
1046,88	18174,15
1047,30	20372,87
1047,72	19935,08
1048,15	20216,16
1048,57	18841,02
1048,99	18907,16
1049,41	19775,46
1049,83	20195,41
1050,25	21686,42
1050,67	20680,28
1051,09	19166,69
1051,52	19421,25
1051,94	16939,00
1052,36	19106,70
1052,78	17472,62
1053,20	18800,72
1053,62	18521,87
1054,04	19444,02
1054,46	19780,64
1054,88	21652,04
1055,30	20615,87
1055,72	20311,63
1056,14	19385,02
1056,57	24214,42
1056,99	18197,87
1057,41	19661,49
1057,83	19845,93
1058,25	18530,13
1058,67	18856,52
1059,09	18551,81
1059,51	20332,39
1059,93	19359,14
1060,35	18639,58
1060,77	19969,30
1061,19	20459,04
1061,61	19321,88
1062,03	18891,66
1062,45	18223,65
1062,87	20099,97
1063,29	20117,60
1063,71	18711,88
1064,13	18336,10
1064,55	17598,19
1064,97	20441,39
1065,39	19076,71
1065,81	19089,12
1066,23	19429,53
1066,65	18659,20
1067,07	21455,18
1067,49	19233,93
1067,91	18524,96
1068,33	17729,98
1068,75	20179,84
1069,17	20470,46
1069,59	20130,05
1070,00	18742,87
1070,42	19915,38
1070,84	18604,47
1071,26	17940,14
1071,68	17923,65
1072,10	19853,19
1072,52	18767,66
1072,94	17770,15
1073,36	18359,83
1073,78	18509,48
1074,20	19188,41
1074,62	18284,51
1075,03	18258,72
1075,45	18826,55
1075,87	20023,22
1076,29	18574,52
1076,71	19930,94
1077,13	21138,78
1077,55	17278,20
1077,97	19378,81
1078,38	18415,55
1078,80	18790,39
1079,22	19569,31
1079,64	18987,79
1080,06	18575,55
1080,48	19386,05
1080,89	18923,70
1081,31	18706,71
1081,73	18974,35
1082,15	19045,69
1082,57	20169,47
1082,99	18874,09
1083,40	18655,07
1083,82	20655,34
1084,24	18156,62
1084,66	18576,59
1085,08	19339,48
1085,49	17399,57
1085,91	19723,65
1086,33	38848,02
1086,75	19636,63
1087,17	18301,02
1087,58	18301,02
1088,00	18524,96
1088,42	20254,55
1088,84	18760,43
1089,25	17872,13
1089,67	18421,74
1090,09	18649,90
1090,51	18103,00
1090,92	18795,56
1091,34	18341,25
1091,76	18956,78
1092,18	18543,55
1092,59	18834,82
1093,01	18611,69
1093,43	19001,23
1093,84	18117,43
1094,26	18661,27
1094,68	19352,93
1095,10	17782,51
1095,51	18755,26
1095,93	18312,37
1096,35	19562,06
1096,76	19579,66
1097,18	19271,18
1097,60	18905,10
1098,01	18491,93
1098,43	18053,51
1098,85	18541,48
1099,26	18373,24
1099,68	18959,88
1100,10	17685,70
1100,51	18232,93
1100,93	18505,35
1101,35	18736,67
1101,76	19017,77
1102,18	27832,17
1102,60	20474,62
1103,01	16714,10
1103,43	18755,26
1103,84	18536,32
1104,26	17955,59
1104,68	18588,98
1105,09	16783,92
1105,51	17283,34
1105,92	19857,34
1106,34	17223,69
1106,76	19181,17
1107,17	18999,16
1107,59	18931,97
1108,00	16784,95
1108,42	18281,42
1108,83	16950,30
1109,25	17971,05
1109,67	16978,04
1110,08	17210,33
1110,50	16733,61
1110,91	17899,95
1111,33	17203,13
1111,74	17029,42
1112,16	18216,43
1112,57	18496,06
1112,99	17474,68
1113,41	17927,77
1113,82	17432,49
1114,24	18304,11
1114,65	17937,04
1115,07	17110,61
1115,48	16629,94
1115,90	1873,71
1116,31	2215,93
1116,73	2176,03
1117,14	2184,01
>>>>>End Processed Spectral Data<<<<<
