SpectraSuite Data File
++++++++++++++++++++++++++++++++++++
Date: Wed Jul 27 14:14:28 EEST 2016
User: OO Maya
Dark Spectrum Present: No
Reference Spectrum Present: No
Number of Sampled Component Spectra: 1
Spectrometers: MAYP11278
Integration Time (usec): 15000000 (MAYP11278)
Spectra Averaged: 1 (MAYP11278)
Boxcar Smoothing: 0 (MAYP11278)
Correct for Electrical Dark: No (MAYP11278)
Strobe/Lamp Enabled: No (MAYP11278)
Correct for Detector Non-linearity: Yes (MAYP11278)
Correct for Stray Light: No (MAYP11278)
Number of Pixels in Processed Spectrum: 2068
>>>>>Begin Processed Spectral Data<<<<<
187,82	2284,78
188,30	2208,95
188,78	2174,03
189,26	2178,02
189,73	16352,95
190,21	17900,98
190,69	17708,35
191,17	18099,91
191,64	18925,77
192,12	18056,60
192,60	17663,05
193,07	16948,25
193,55	17956,62
194,03	17870,07
194,51	18440,32
194,98	17620,83
195,46	19287,74
195,94	17705,26
196,42	18093,72
196,89	20982,76
197,37	17888,61
197,85	17133,22
198,32	17710,41
198,80	17310,08
199,28	18570,39
199,76	19006,40
200,23	17902,01
200,71	17960,75
201,19	19096,36
201,66	19048,79
202,14	18916,47
202,62	17178,46
203,09	18786,26
203,57	17420,15
204,05	19408,82
204,53	19751,63
205,00	17665,11
205,48	17722,77
205,96	19925,75
206,43	17948,38
206,91	18735,64
207,39	21378,14
207,86	18704,65
208,34	19194,62
208,82	18170,02
209,29	19382,95
209,77	19170,83
210,25	18352,60
210,72	18270,07
211,20	18896,83
211,68	18485,74
212,15	17983,42
212,63	20471,50
213,11	19225,66
213,58	18040,11
214,06	20614,83
214,53	18859,62
215,01	20336,54
215,49	19015,71
215,96	19179,10
216,44	19076,71
216,92	19223,59
217,39	18013,31
217,87	18368,08
218,35	19945,45
218,82	17252,49
219,30	17912,31
219,77	17927,77
220,25	18630,28
220,73	21223,05
221,20	17984,45
221,68	19707,07
222,15	17789,72
222,63	19559,99
223,11	18247,37
223,58	19587,95
224,06	18437,22
224,53	18094,75
225,01	17620,83
225,49	18411,42
225,96	17921,59
226,44	18603,43
226,91	19688,43
227,39	18317,52
227,87	19877,03
228,34	19419,18
228,82	19345,69
229,29	18438,26
229,77	18587,94
230,24	18162,80
230,72	19448,16
231,20	19455,41
231,67	18560,07
232,15	18857,56
232,62	17822,68
233,10	19099,46
233,57	19242,21
234,05	22823,92
234,53	19049,83
235,00	18215,40
235,48	17904,07
235,95	17589,95
236,43	19701,89
236,90	21181,43
237,38	18199,93
237,85	18971,25
238,33	18977,45
238,80	19075,68
239,28	18625,12
239,75	17562,16
240,23	19312,57
240,71	20179,84
241,18	18938,17
241,66	18641,64
242,13	19783,75
242,61	20230,68
243,08	17699,09
243,56	17993,73
244,03	19634,56
244,51	20251,44
244,98	18495,03
245,46	20367,68
245,93	68393,61
246,41	17365,62
246,88	18998,13
247,36	19006,40
247,83	18986,76
248,31	19162,55
248,78	17288,48
249,26	18754,23
249,73	19597,27
250,21	19096,36
250,68	20488,12
251,16	18919,57
251,63	21124,21
252,10	20327,20
252,58	18340,22
253,05	20369,76
253,53	18868,92
254,00	18564,20
254,48	18818,29
254,95	19209,10
255,43	19803,44
255,90	18198,90
256,38	19090,16
256,85	19568,27
257,33	19976,55
257,80	22349,71
258,27	19142,90
258,75	18473,35
259,22	19334,30
259,70	19556,88
260,17	20811,22
260,65	19025,01
261,12	18421,74
261,59	19992,11
262,07	18151,46
262,54	19420,21
263,02	18514,64
263,49	17606,42
263,97	19757,84
264,44	20112,41
264,91	18479,54
265,39	19005,37
265,86	19287,74
266,34	19650,10
266,81	18466,12
267,28	18945,41
267,76	19083,95
268,23	19508,21
268,71	17295,68
269,18	18015,37
269,65	18404,20
270,13	19529,96
270,60	20506,81
271,08	18670,56
271,55	18807,96
272,02	17568,33
272,50	17802,08
272,97	17126,03
273,44	18951,61
273,92	23154,34
274,39	19735,05
274,87	19801,37
275,34	18390,78
275,81	18578,65
276,29	19395,37
276,76	19921,61
277,23	17709,38
277,71	18755,26
278,18	17839,16
278,65	23697,64
279,13	18534,26
279,60	18317,52
280,07	23143,87
280,55	20095,82
281,02	22777,93
281,50	18265,94
281,97	20111,38
282,44	18704,65
282,91	18779,03
283,39	19506,14
283,86	17821,65
284,33	17848,43
284,81	19713,29
285,28	18851,36
285,75	19389,16
286,23	19120,15
286,70	17476,74
287,17	19438,84
287,65	20998,36
288,12	18615,83
288,59	19821,06
289,07	17014,01
289,54	20634,56
290,01	18072,07
290,48	19367,42
290,96	18279,35
291,43	19395,37
291,90	21480,18
292,38	18326,81
292,85	20076,11
293,32	18488,83
293,79	19528,92
294,27	19478,19
294,74	18422,78
295,21	18849,29
295,69	19104,63
296,16	20966,12
296,63	20960,92
297,10	19820,02
297,58	19451,27
298,05	19344,65
298,52	18482,64
298,99	21069,08
299,47	18831,72
299,94	19462,66
300,41	18636,48
300,88	20075,07
301,36	20060,55
301,83	19952,71
302,30	17943,23
302,77	19822,10
303,25	20014,92
303,72	18286,57
304,19	18699,48
304,66	18333,00
305,13	19045,69
305,61	19484,40
306,08	19209,10
306,55	19794,11
307,02	18657,13
307,49	18753,20
307,97	19313,61
308,44	18666,43
308,91	20143,53
309,38	20233,80
309,86	19426,42
310,33	19159,45
310,80	19713,29
311,27	18251,50
311,74	20182,96
312,21	18858,59
312,69	21038,92
313,16	18390,78
313,63	18475,41
314,10	19120,15
314,57	18437,22
315,05	18305,14
315,52	20095,82
315,99	19779,61
316,46	19214,28
316,93	19830,39
317,40	19304,29
317,88	22365,37
318,35	19087,05
318,82	18844,12
319,29	17750,58
319,76	19485,43
320,23	21373,97
320,70	20054,33
321,18	18655,07
321,65	17253,51
322,12	17905,10
322,59	21042,04
323,06	18742,87
323,53	22141,00
324,00	17889,64
324,48	19418,14
324,95	19044,66
325,42	18594,14
325,89	18675,72
326,36	18458,90
326,83	19568,27
327,30	19414,00
327,77	19602,45
328,24	19261,87
328,72	18899,93
329,19	18485,74
329,66	18649,90
330,13	18261,82
330,60	19888,43
331,07	19772,35
331,54	20971,32
332,01	18444,45
332,48	21401,04
332,95	20017,00
333,43	19699,82
333,90	20531,73
334,37	19381,91
334,84	19796,19
335,31	23524,83
335,78	17844,31
336,25	19012,60
336,72	18766,63
337,19	19391,23
337,66	18796,59
338,13	18631,32
338,60	20776,92
339,07	20122,79
339,54	17993,73
340,01	18135,99
340,49	18130,84
340,96	19622,13
341,43	20404,01
341,90	18471,29
342,37	19387,09
342,84	19903,98
343,31	19328,09
343,78	18848,26
344,25	19117,04
344,72	18314,43
345,19	19078,78
345,66	19753,70
346,13	18735,64
346,60	18294,83
347,07	20839,28
347,54	18500,19
348,01	20342,77
348,48	19304,29
348,95	17724,83
349,42	19112,91
349,89	19969,30
350,36	19129,46
350,83	18053,51
351,30	19445,06
351,77	21338,58
352,24	19514,42
352,71	18861,69
353,18	19122,22
353,65	19708,11
354,12	19332,23
354,59	20026,33
355,06	19425,39
355,53	20903,73
356,00	18641,64
356,47	20943,24
356,94	18222,62
357,41	22695,38
357,88	19892,58
358,35	17627,01
358,82	18329,90
359,28	18435,16
359,75	18614,79
360,22	20062,63
360,69	20845,52
361,16	18555,94
361,63	18915,43
362,10	19052,93
362,57	18905,10
363,04	18837,92
363,51	21714,56
363,98	19928,86
364,45	18275,23
364,92	19809,66
365,39	18517,74
365,86	17925,71
366,32	19294,98
366,79	19059,13
367,26	41052,69
367,73	17130,14
368,20	17985,48
368,67	19839,72
369,14	17983,42
369,61	20226,53
370,08	19178,07
370,55	18711,88
371,02	27609,00
371,48	19544,45
371,95	18417,62
372,42	17602,30
372,89	18056,60
373,36	18880,29
373,83	17750,58
374,30	18340,22
374,77	19507,18
375,23	17340,93
375,70	20792,51
376,17	18611,69
376,64	17735,13
377,11	18064,85
377,58	19564,13
378,05	19028,11
378,51	18856,52
378,98	19166,69
379,45	18926,80
379,92	19797,22
380,39	22036,69
380,86	19189,45
381,33	20733,27
381,79	20575,35
382,26	17696,00
382,73	19453,34
383,20	18548,71
383,67	19977,59
384,14	18782,13
384,60	25404,62
385,07	19032,25
385,54	18436,19
386,01	18633,38
386,48	21016,04
386,94	18171,05
387,41	17768,09
387,88	19959,97
388,35	19509,25
388,82	20396,75
389,28	18252,53
389,75	19793,08
390,22	19327,06
390,69	19466,80
391,16	19291,87
391,62	19045,69
392,09	19424,35
392,56	18859,62
393,03	18757,33
393,50	22134,74
393,96	19011,57
394,43	20357,30
394,90	18046,30
395,37	20014,92
395,83	24966,16
396,30	17576,57
396,77	19879,10
397,24	19874,96
397,70	18021,56
398,17	18953,68
398,64	18506,38
399,11	18071,04
399,57	20393,63
400,04	17783,54
400,51	18801,76
400,98	18629,25
401,44	19266,01
401,91	19298,08
402,38	19214,28
402,84	17928,80
403,31	21011,88
403,78	18424,84
404,25	20560,81
404,71	21177,27
405,18	20655,34
405,65	18062,79
406,12	19894,65
406,58	19505,11
407,05	21353,15
407,52	18967,12
407,98	19323,95
408,45	19883,25
408,92	17978,27
409,38	20329,27
409,85	18128,78
410,32	20309,55
410,78	18219,53
411,25	20367,68
411,72	18543,55
412,18	17151,73
412,65	19522,71
413,12	18555,94
413,59	19405,72
414,05	19654,24
414,52	20933,89
414,98	18750,10
415,45	21035,80
415,92	19289,81
416,38	19095,33
416,85	21365,65
417,32	19406,75
417,78	18807,96
418,25	19220,48
418,72	19051,89
419,18	19899,83
419,65	18188,59
420,12	19996,26
420,58	17793,84
421,05	18776,96
421,51	18526,00
421,98	19544,45
422,45	18261,82
422,91	18718,07
423,38	19648,02
423,85	19941,30
424,31	18795,56
424,78	19947,52
425,24	18933,00
425,71	20477,73
426,18	18640,61
426,64	20444,51
427,11	20023,22
427,57	20244,17
428,04	17955,59
428,51	20206,82
428,97	19566,20
429,44	18923,70
429,90	19492,68
430,37	23014,19
430,83	17965,90
431,30	18819,32
431,77	20826,81
432,23	20079,22
432,70	18806,92
433,16	18481,61
433,63	18864,79
434,09	18670,56
434,56	19747,48
435,03	17928,80
435,49	19859,41
435,96	19254,63
436,42	17727,92
436,89	19852,15
437,35	19324,99
437,82	19164,62
438,28	18219,53
438,75	18633,38
439,21	23877,86
439,68	19247,38
440,14	20009,74
440,61	20428,93
441,07	18250,47
441,54	18631,32
442,00	21887,58
442,47	18019,50
442,94	19220,48
443,40	19490,61
443,87	17644,51
444,33	20789,39
444,80	19550,67
445,26	19047,76
445,73	18781,09
446,19	19400,54
446,65	18877,19
447,12	19103,60
447,58	18537,35
448,05	18422,78
448,51	19645,95
448,98	19720,54
449,44	18835,85
449,91	18059,70
450,37	17931,89
450,84	18218,49
451,30	19186,35
451,77	19854,23
452,23	18157,65
452,70	20335,50
453,16	18803,82
453,62	18945,41
454,09	18933,00
454,55	19499,93
455,02	18447,55
455,48	18995,03
455,95	20068,85
456,41	18334,03
456,88	20588,86
457,34	18692,25
457,80	18851,36
458,27	17847,40
458,73	19233,93
459,20	18794,52
459,66	19969,30
460,13	18430,00
460,59	17877,28
461,05	20691,71
461,52	20056,40
461,98	18171,05
462,45	17624,95
462,91	20236,91
463,37	18626,15
463,84	19248,42
464,30	19165,66
464,76	17870,07
465,23	18572,46
465,69	20075,07
466,16	19206,00
466,62	19576,56
467,08	19491,64
467,55	18741,83
468,01	19389,16
468,48	19469,90
468,94	18808,99
469,40	18218,49
469,87	19480,26
470,33	19267,04
470,79	18547,68
471,26	18488,83
471,72	18011,25
472,18	18466,12
472,65	18714,98
473,11	20637,68
473,57	18648,87
474,04	17937,04
474,50	18697,42
474,96	17847,40
475,43	19200,83
475,89	18899,93
476,35	19292,91
476,82	18847,22
477,28	19120,15
477,74	20674,04
478,21	19314,64
478,67	19929,90
479,13	18101,97
479,59	21157,50
480,06	19516,50
480,52	19458,51
480,98	18264,91
481,45	18842,05
481,91	19025,01
482,37	17792,81
482,84	18498,12
483,30	17527,16
483,76	18701,55
484,22	20770,68
484,69	19117,04
485,15	18993,99
485,61	17291,56
486,07	18550,77
486,54	17292,59
487,00	19224,62
487,46	17508,64
487,92	17478,80
488,39	18080,32
488,85	19036,38
489,31	18856,52
489,77	20144,57
490,24	17576,57
490,70	19137,73
491,16	17499,38
491,62	18132,90
492,09	17183,60
492,55	19811,73
493,01	19113,94
493,47	18799,69
493,94	18391,82
494,40	18531,16
494,86	18114,34
495,32	17899,95
495,78	18705,68
496,25	18347,44
496,71	18624,09
497,17	21073,24
497,63	20157,02
498,09	17967,96
498,56	19029,15
499,02	18289,67
499,48	21813,56
499,94	18878,22
500,40	18207,15
500,87	18683,99
501,33	18355,70
501,79	19520,64
502,25	18627,18
502,71	26112,16
503,17	18587,94
503,64	19280,49
504,10	18130,84
504,56	19007,43
505,02	19226,69
505,48	18010,22
505,94	18728,40
506,40	19787,90
506,87	18640,61
507,33	19426,42
507,79	19128,42
508,25	18084,44
508,71	17841,22
509,17	17288,48
509,63	18193,74
510,10	18682,95
510,56	17942,20
511,02	20306,44
511,48	20231,72
511,94	17820,62
512,40	17162,01
512,86	18171,05
513,32	19275,32
513,78	16877,37
514,25	19650,10
514,71	35614,41
515,17	16892,78
515,63	19278,42
516,09	20149,76
516,55	19738,16
517,01	21901,13
517,47	19274,28
517,93	18957,81
518,39	23222,34
518,85	18724,27
519,32	18165,90
519,78	17572,45
520,24	17982,39
520,70	19144,97
521,16	19334,30
521,62	19652,17
522,08	18706,71
522,54	17445,87
523,00	20975,48
523,46	19818,99
523,92	18395,94
524,38	20951,56
524,84	19516,50
525,30	19627,31
525,76	20318,90
526,22	18995,03
526,68	18859,62
527,14	17980,33
527,60	18529,09
528,06	19754,74
528,52	19579,66
528,98	18425,87
529,44	17818,56
529,90	19610,74
530,36	19582,77
530,82	17221,64
531,28	20025,29
531,74	18732,54
532,20	18694,32
532,66	18793,49
533,12	19273,25
533,58	18426,90
534,04	17657,90
534,50	18576,59
534,96	18229,84
535,42	19079,81
535,88	18185,49
536,34	19400,54
536,80	17725,86
537,26	19535,13
537,72	18679,86
538,18	18628,22
538,64	20830,96
539,10	19660,46
539,56	25462,48
540,02	17286,42
540,48	20837,20
540,94	18973,32
541,40	17580,69
541,86	19270,15
542,32	19241,17
542,78	18266,97
543,24	22137,87
543,69	17554,95
544,15	21173,11
544,61	19602,45
545,07	18612,73
545,53	18382,53
545,99	19890,51
546,45	18784,19
546,91	19207,03
547,37	19418,14
547,83	19097,40
548,29	18531,16
548,74	18405,23
549,20	17708,35
549,66	21641,62
550,12	18383,56
550,58	17543,63
551,04	19294,98
551,50	19069,47
551,96	20913,09
552,42	19252,56
552,87	17964,87
553,33	19411,93
553,79	18606,53
554,25	17804,14
554,71	19332,23
555,17	18924,73
555,63	21079,48
556,08	19019,84
556,54	20508,89
557,00	17079,78
557,46	18985,72
557,92	21592,66
558,38	18133,93
558,83	18566,26
559,29	18015,37
559,75	17966,93
560,21	17797,96
560,67	18723,24
561,13	18638,54
561,58	19025,01
562,04	18063,82
562,50	17929,83
562,96	18897,86
563,42	20084,41
563,87	17875,22
564,33	19407,79
564,79	18518,77
565,25	18463,03
565,71	18974,35
566,16	20150,79
566,62	18616,86
567,08	18029,80
567,54	18755,26
568,00	19689,46
568,45	18111,25
568,91	18718,07
569,37	19495,79
569,83	18873,06
570,28	18855,49
570,74	19641,81
571,20	19688,43
571,66	18678,82
572,11	19023,98
572,57	19155,31
573,03	18107,12
573,49	18081,35
573,94	18964,01
574,40	20645,99
574,86	19905,02
575,32	17504,52
575,77	18930,94
576,23	16780,84
576,69	20227,57
577,15	18455,80
577,60	18386,66
578,06	17565,25
578,52	20385,33
578,97	18345,38
579,43	18154,55
579,89	18982,62
580,34	19177,04
580,80	18624,09
581,26	18865,82
581,72	19015,71
582,17	18600,34
582,63	17662,02
583,09	18579,68
583,54	19231,86
584,00	18672,63
584,46	19316,71
584,91	18104,03
585,37	22273,52
585,83	18584,85
586,28	18289,67
586,74	18691,22
587,20	18521,87
587,65	19925,75
588,11	17584,80
588,57	19322,92
589,02	18585,88
589,48	18072,07
589,94	19193,59
590,39	19718,47
590,85	18408,33
591,30	17467,48
591,76	20539,00
592,22	18242,22
592,67	19141,87
593,13	18739,77
593,59	19888,43
594,04	18830,69
594,50	18671,59
594,95	20230,68
595,41	18368,08
595,87	17791,78
596,32	20656,38
596,78	19649,06
597,23	20398,82
597,69	18993,99
598,15	17407,80
598,60	18849,29
599,06	20438,28
599,51	18235,00
599,97	19373,63
600,43	20173,62
600,88	19484,40
601,34	19504,07
601,79	17496,29
602,25	22724,64
602,70	18315,46
603,16	18943,34
603,61	17610,54
604,07	17150,70
604,53	19522,71
604,98	18546,64
605,44	19651,13
605,89	19000,20
606,35	17357,39
606,80	18862,72
607,26	18390,78
607,71	19104,63
608,17	19534,10
608,62	18575,55
609,08	22023,13
609,53	19828,31
609,99	18571,42
610,44	18412,46
610,90	18962,98
611,35	17575,54
611,81	21287,58
612,26	19528,92
612,72	18961,95
613,17	22809,28
613,63	17528,19
614,08	17441,75
614,54	17590,98
614,99	17584,80
615,45	18490,90
615,90	18834,82
616,36	17856,67
616,81	18424,84
617,27	18578,65
617,72	19588,99
618,18	18025,68
618,63	18425,87
619,09	18530,13
619,54	19610,74
619,99	18632,35
620,45	19728,83
620,90	20006,63
621,36	18678,82
621,81	20010,77
622,27	20309,55
622,72	20093,74
623,18	18320,62
623,63	17919,53
624,08	20064,70
624,54	17310,08
624,99	18612,73
625,45	18976,42
625,90	17781,48
626,35	18701,55
626,81	19100,50
627,26	17728,95
627,72	19516,50
628,17	19919,53
628,62	17313,16
629,08	18628,22
629,53	18950,58
629,99	18060,73
630,44	19373,63
630,89	18471,29
631,35	19782,71
631,80	19128,42
632,26	19928,86
632,71	18019,50
633,16	18359,83
633,62	17944,26
634,07	18223,65
634,52	17675,40
634,98	18370,15
635,43	17951,47
635,88	17422,20
636,34	18620,99
636,79	18484,70
637,24	17801,05
637,70	19730,90
638,15	19736,09
638,60	18359,83
639,06	18673,66
639,51	17701,14
639,96	17062,30
640,42	19043,62
640,87	19982,78
641,32	17300,82
641,78	18229,84
642,23	18422,78
642,68	16981,13
643,14	18223,65
643,59	19510,28
644,04	17872,13
644,49	17550,84
644,95	18077,22
645,40	17726,89
645,85	18558,00
646,31	18819,32
646,76	19315,68
647,21	19393,30
647,66	18929,90
648,12	19057,07
648,57	17565,25
649,02	20154,94
649,47	19276,35
649,93	23965,90
650,38	17755,73
650,83	17743,37
651,28	18021,56
651,74	18951,61
652,19	17698,06
652,64	18638,54
653,09	17682,61
653,55	17798,99
654,00	18671,59
654,45	19082,92
654,90	18417,62
655,35	17577,60
655,81	19475,08
656,26	17980,33
656,71	18686,05
657,16	19367,42
657,62	19303,26
658,07	17812,38
658,52	18876,16
658,97	17599,22
659,42	24293,10
659,88	18086,50
660,33	19974,48
660,78	18463,03
661,23	17639,37
661,68	18524,96
662,13	17778,39
662,59	16887,64
663,04	19152,21
663,49	18264,91
663,94	18106,09
664,39	18489,87
664,84	17560,10
665,30	18719,11
665,75	17358,42
666,20	18733,57
666,65	18674,69
667,10	22034,60
667,55	20172,58
668,00	17783,54
668,46	19160,49
668,91	17645,54
669,36	21354,19
669,81	16960,58
670,26	17924,68
670,71	20071,96
671,16	18776,96
671,61	20603,40
672,06	21689,55
672,52	18610,66
672,97	18726,34
673,42	20110,34
673,87	23109,36
674,32	18829,65
674,77	19129,46
675,22	17093,14
675,67	17726,89
676,12	18929,90
676,57	18431,03
677,02	18245,31
677,47	18190,65
677,93	21984,54
678,38	17933,95
678,83	18374,27
679,28	18988,83
679,73	17956,62
680,18	18460,96
680,63	18642,68
681,08	16317,07
681,53	16798,29
681,98	18161,77
682,43	18548,71
682,88	19613,84
683,33	19222,55
683,78	19028,11
684,23	20076,11
684,68	18973,32
685,13	18844,12
685,58	18976,42
686,03	18545,61
686,48	17537,46
686,93	18709,81
687,38	17973,11
687,83	18895,79
688,28	18292,76
688,73	22197,34
689,18	19304,29
689,63	16943,11
690,08	18366,02
690,53	18360,86
690,98	17312,13
691,43	18448,58
691,88	17086,97
692,33	18745,97
692,78	18336,10
693,23	19778,57
693,68	19008,47
694,13	18719,11
694,58	18904,06
695,03	24495,63
695,48	18838,95
695,93	18881,33
696,38	20998,36
696,83	18423,81
697,28	17973,11
697,72	18980,56
698,17	17688,79
698,62	19507,18
699,07	19492,68
699,52	17772,21
699,97	18171,05
700,42	19398,47
700,87	19488,54
701,32	23809,74
701,77	17425,29
702,22	20452,81
702,67	18245,31
703,11	18215,40
703,56	18944,37
704,01	18433,10
704,46	18269,04
704,91	20189,18
705,36	19874,96
705,81	19635,59
706,26	17395,45
706,70	19281,53
707,15	18616,86
707,60	18304,11
708,05	19221,52
708,50	19825,20
708,95	18750,10
709,40	18141,15
709,84	18614,79
710,29	18601,37
710,74	18125,68
711,19	19330,16
711,64	18755,26
712,09	18878,22
712,53	17726,89
712,98	21263,64
713,43	18584,85
713,88	18771,79
714,33	20435,16
714,78	19748,52
715,22	18322,68
715,67	18794,52
716,12	18244,28
716,57	18223,65
717,02	17503,49
717,46	17517,90
717,91	19101,53
718,36	20948,44
718,81	17610,54
719,26	17425,29
719,70	18845,15
720,15	18240,15
720,60	17871,10
721,05	18838,95
721,49	18051,45
721,94	19050,86
722,39	18587,94
722,84	17425,29
723,28	17080,80
723,73	18815,19
724,18	16867,10
724,63	19050,86
725,07	17114,72
725,52	18574,52
725,97	18507,41
726,42	18821,39
726,86	20967,16
727,31	17641,42
727,76	20118,64
728,21	19081,88
728,65	18243,25
729,10	20331,35
729,55	18127,74
729,99	19682,21
730,44	17463,36
730,89	18728,40
731,33	19088,09
731,78	19022,94
732,23	18929,90
732,68	17602,30
733,12	19407,79
733,57	18990,89
734,02	17818,56
734,46	19516,50
734,91	19343,62
735,36	18579,68
735,80	22268,30
736,25	17885,52
736,70	18450,64
737,14	19536,17
737,59	19506,14
738,04	18800,72
738,48	18215,40
738,93	18915,43
739,37	17331,68
739,82	20189,18
740,27	19287,74
740,71	17874,19
741,16	19101,53
741,61	19225,66
742,05	18641,64
742,50	18716,01
742,94	17681,58
743,39	17798,99
743,84	18506,38
744,28	19882,21
744,73	19612,81
745,18	19023,98
745,62	19624,20
746,07	20407,13
746,51	16620,70
746,96	17602,30
747,40	17175,37
747,85	19069,47
748,30	18507,41
748,74	18059,70
749,19	19083,95
749,63	22307,96
750,08	18891,66
750,52	18455,80
750,97	17303,91
751,42	18018,46
751,86	18287,61
752,31	18298,95
752,75	21233,46
753,20	17933,95
753,64	18198,90
754,09	17131,17
754,53	18266,97
754,98	17387,22
755,42	18407,30
755,87	18554,90
756,31	20050,18
756,76	18160,74
757,20	20139,38
757,65	18707,74
758,09	18417,62
758,54	18338,16
758,98	18344,35
759,43	17495,26
759,87	18357,76
760,32	18843,09
760,76	18581,75
761,21	19360,18
761,65	20257,66
762,10	18160,74
762,54	17622,89
762,99	18246,34
763,43	19691,53
763,88	18450,64
764,32	17340,93
764,77	17928,80
765,21	18991,93
765,66	17682,61
766,10	17360,48
766,54	17983,42
766,99	18580,72
767,43	18726,34
767,88	19025,01
768,32	19380,88
768,77	18064,85
769,21	21098,20
769,66	17515,84
770,10	18287,61
770,54	17888,61
770,99	17410,89
771,43	19381,91
771,88	18735,64
772,32	19376,74
772,76	17058,19
773,21	18235,00
773,65	17873,16
774,10	16698,71
774,54	18584,85
774,98	17685,70
775,43	18686,05
775,87	18501,22
776,31	17506,58
776,76	18163,83
777,20	18128,78
777,65	19409,86
778,09	19433,67
778,53	18141,15
778,98	18673,66
779,42	22197,34
779,86	20365,60
780,31	18629,25
780,75	19902,94
781,19	19190,48
781,64	17632,16
782,08	18821,39
782,52	17387,22
782,97	18156,62
783,41	19289,81
783,85	19555,85
784,30	18568,33
784,74	18091,66
785,18	18279,35
785,63	17779,42
786,07	19437,81
786,51	19877,03
786,95	20195,41
787,40	17551,87
787,84	18006,10
788,28	18821,39
788,73	22296,48
789,17	18160,74
789,61	18014,34
790,05	18615,83
790,50	17601,27
790,94	17735,13
791,38	19766,13
791,82	18115,37
792,27	18504,32
792,71	17841,22
793,15	24134,71
793,59	19693,61
794,04	18552,84
794,48	18929,90
794,92	18472,32
795,36	17619,80
795,81	19113,94
796,25	18270,07
796,69	18413,49
797,13	17970,02
797,57	17540,54
798,02	18459,93
798,46	19898,80
798,90	18787,29
799,34	17541,57
799,79	20578,47
800,23	18874,09
800,67	17555,98
801,11	19047,76
801,55	18892,69
801,99	17569,36
802,44	19771,32
802,88	20983,80
803,32	19327,06
803,76	18719,11
804,20	18333,00
804,64	17971,05
805,09	20816,41
805,53	21482,26
805,97	21011,88
806,41	19338,44
806,85	21378,14
807,29	18254,60
807,74	18544,58
808,18	17474,68
808,62	19070,51
809,06	18528,06
809,50	17809,29
809,94	17466,45
810,38	19236,00
810,82	20493,31
811,27	23254,77
811,71	17850,49
812,15	17872,13
812,59	19317,75
813,03	20970,28
813,47	19763,03
813,91	18819,32
814,35	19532,03
814,79	19388,12
815,23	18804,86
815,67	18168,99
816,12	17896,86
816,56	17937,04
817,00	19451,27
817,44	18748,03
817,88	19890,51
818,32	17878,31
818,76	19398,47
819,20	20006,63
819,64	18003,00
820,08	19195,66
820,52	18209,21
820,96	18650,94
821,40	17766,03
821,84	20608,59
822,28	17500,41
822,72	18695,35
823,16	18996,06
823,60	17595,10
824,04	18709,81
824,48	18974,35
824,92	18975,39
825,36	19066,37
825,80	17691,88
826,24	18350,54
826,68	16484,23
827,12	18830,69
827,56	19565,17
828,00	20125,90
828,44	17788,69
828,88	19766,13
829,32	18922,67
829,76	17949,41
830,20	20607,56
830,64	18419,68
831,08	21719,77
831,52	19720,54
831,96	19456,44
832,40	17347,11
832,84	18417,62
833,28	18385,62
833,72	20500,58
834,16	19474,04
834,60	18527,03
835,04	17850,49
835,48	19908,13
835,91	18543,55
836,35	18692,25
836,79	18298,95
837,23	19603,49
837,67	17899,95
838,11	17906,13
838,55	18905,10
838,99	18717,04
839,43	20596,13
839,87	21531,21
840,30	18915,43
840,74	20360,41
841,18	16905,11
841,62	17855,64
842,06	17651,72
842,50	18266,97
842,94	19554,81
843,38	18781,09
843,81	19554,81
844,25	18689,15
844,69	17794,87
845,13	19192,55
845,57	18241,19
846,01	19458,51
846,45	17985,48
846,88	17791,78
847,32	18636,48
847,76	17930,86
848,20	18188,59
848,64	18177,24
849,08	19285,67
849,51	20181,92
849,95	19599,34
850,39	18279,35
850,83	19703,97
851,27	17787,66
851,70	18896,83
852,14	19922,64
852,58	18050,42
853,02	18200,96
853,46	19541,35
853,89	17276,14
854,33	19802,40
854,77	17209,30
855,21	18077,22
855,65	19905,02
856,08	20582,63
856,52	18678,82
856,96	19284,63
857,40	18682,95
857,83	17436,61
858,27	20155,98
858,71	16828,07
859,15	17841,22
859,58	18093,72
860,02	18474,38
860,46	18881,33
860,89	19424,35
861,33	17917,47
861,77	18592,08
862,21	18724,27
862,64	17980,33
863,08	18173,12
863,52	19479,22
863,95	17866,98
864,39	18436,19
864,83	18565,23
865,27	17257,63
865,70	18467,16
866,14	17030,45
866,58	19337,41
867,01	17540,54
867,45	18902,00
867,89	18355,70
868,32	18009,19
868,76	18947,48
869,20	18591,04
869,63	20295,02
870,07	21826,07
870,51	17362,53
870,94	18357,76
871,38	18649,90
871,82	17704,23
872,25	18855,49
872,69	19289,81
873,13	18271,10
873,56	19921,61
874,00	19629,38
874,43	18409,36
874,87	17654,81
875,31	19945,45
875,74	16902,02
876,18	18955,74
876,61	18345,38
877,05	18392,85
877,49	18524,96
877,92	18421,74
878,36	18826,55
878,79	18229,84
879,23	20604,44
879,67	17660,99
880,10	17532,31
880,54	17926,74
880,97	18822,42
881,41	19362,25
881,84	18262,85
882,28	18214,37
882,72	18177,24
883,15	18199,93
883,59	17427,35
884,02	19338,44
884,46	18548,71
884,89	19172,90
885,33	19631,45
885,76	18147,34
886,20	17809,29
886,63	20878,78
887,07	17687,76
887,50	17621,86
887,94	18460,96
888,37	17973,11
888,81	22090,93
889,24	17220,61
889,68	19756,81
890,11	17805,17
890,55	19181,17
890,98	19148,07
891,42	17328,59
891,85	17753,67
892,29	18120,53
892,72	17508,64
893,16	18126,71
893,59	18919,57
894,03	18286,57
894,46	19549,63
894,90	17951,47
895,33	17652,75
895,77	18671,59
896,20	18997,10
896,63	17700,12
897,07	17306,99
897,50	17316,25
897,94	18770,76
898,37	19954,78
898,81	17796,93
899,24	17651,72
899,68	17964,87
900,11	19603,49
900,54	19331,20
900,98	18303,08
901,41	20926,61
901,85	21155,42
902,28	17669,22
902,71	17837,10
903,15	20847,60
903,58	18205,09
904,02	19184,28
904,45	17905,10
904,88	18056,60
905,32	17191,82
905,75	20134,20
906,18	18515,67
906,62	19694,64
907,05	18742,87
907,48	18117,43
907,92	19402,61
908,35	20607,56
908,79	18272,13
909,22	17283,34
909,65	18856,52
910,09	18926,80
910,52	18131,87
910,95	17773,24
911,38	18260,78
911,82	18725,31
912,25	18207,15
912,68	19013,64
913,12	18946,44
913,55	18368,08
913,98	17248,37
914,42	17641,42
914,85	18056,60
915,28	17780,45
915,72	19525,81
916,15	18089,59
916,58	19688,43
917,01	17999,91
917,45	19591,06
917,88	17825,77
918,31	18326,81
918,74	18235,00
919,18	19066,37
919,61	19677,03
920,04	18435,16
920,47	20790,43
920,91	19005,37
921,34	18212,31
921,77	17447,93
922,20	17406,77
922,64	18824,49
923,07	20393,63
923,50	19319,81
923,93	16974,96
924,37	18977,45
924,80	17371,79
925,23	19575,52
925,66	21128,37
926,09	18279,35
926,53	19353,97
926,96	17322,42
927,39	21285,50
927,82	18537,35
928,25	17423,23
928,69	19580,70
929,12	17910,25
929,55	18828,62
929,98	19503,03
930,41	17761,91
930,84	19056,03
931,28	16781,87
931,71	20883,98
932,14	19689,46
932,57	21986,63
933,00	18339,19
933,43	19911,24
933,86	19659,42
934,30	19339,48
934,73	18939,21
935,16	17317,28
935,59	18221,59
936,02	17766,03
936,45	19031,22
936,88	17508,64
937,31	19390,19
937,75	17837,10
938,18	17960,75
938,61	19280,49
939,04	17615,69
939,47	18443,42
939,90	19605,56
940,33	21605,16
940,76	17701,14
941,19	19938,19
941,62	17500,41
942,05	18044,23
942,48	19600,38
942,91	17467,48
943,35	17163,04
943,78	19448,16
944,21	18962,98
944,64	19311,54
945,07	18609,63
945,50	18802,79
945,93	18793,49
946,36	20237,95
946,79	18407,30
947,22	18595,17
947,65	19092,22
948,08	17333,73
948,51	17298,76
948,94	17524,08
949,37	21876,11
949,80	20119,67
950,23	18250,47
950,66	17920,56
951,09	18971,25
951,52	17176,40
951,95	19504,07
952,38	17999,91
952,81	21060,76
953,24	17248,37
953,67	17829,89
954,10	18028,77
954,53	17790,75
954,96	18015,37
955,39	19200,83
955,82	17448,95
956,25	19306,36
956,68	22461,42
957,11	17461,30
957,53	19045,69
957,96	18658,17
958,39	17982,39
958,82	17806,20
959,25	17822,68
959,68	16607,36
960,11	18506,38
960,54	18978,49
960,97	18981,59
961,40	19844,90
961,83	19378,81
962,26	17925,71
962,68	18637,51
963,11	18020,53
963,54	18342,29
963,97	18454,77
964,40	17576,57
964,83	19607,63
965,26	18001,97
965,69	18255,63
966,11	19339,48
966,54	17658,93
966,97	17762,94
967,40	19689,46
967,83	23976,39
968,26	19360,18
968,69	18264,91
969,11	19036,38
969,54	17585,83
969,97	17911,28
970,40	19274,28
970,83	18135,99
971,26	18623,05
971,68	17218,55
972,11	17590,98
972,54	18073,10
972,97	19224,62
973,40	18037,02
973,82	19405,72
974,25	18903,03
974,68	17881,40
975,11	17825,77
975,54	17612,60
975,96	18503,29
976,39	17516,87
976,82	19260,83
977,25	18552,84
977,67	18264,91
978,10	18472,32
978,53	18058,67
978,96	19500,96
979,38	19153,24
979,81	17768,09
980,24	18687,09
980,67	19745,41
981,09	18463,03
981,52	18533,22
981,95	17970,02
982,38	18227,78
982,80	17637,31
983,23	19724,69
983,66	19339,48
984,08	17442,78
984,51	16605,30
984,94	18347,44
985,37	19144,97
985,79	18009,19
986,22	17703,20
986,65	18974,35
987,07	18362,92
987,50	18607,56
987,93	18361,89
988,35	18758,36
988,78	18485,74
989,21	18147,34
989,63	19124,28
990,06	18320,62
990,49	18815,19
990,91	20595,09
991,34	17947,35
991,77	17497,32
992,19	18240,15
992,62	17932,92
993,05	18038,05
993,47	19119,11
993,90	19296,01
994,32	18772,83
994,75	18464,06
995,18	17014,01
995,60	17314,19
996,03	16680,23
996,45	19730,90
996,88	19474,04
997,31	17858,74
997,73	18672,63
998,16	17669,22
998,58	20214,08
999,01	18408,33
999,44	18622,02
999,86	20081,30
1000,29	17547,75
1000,71	18821,39
1001,14	19143,94
1001,56	18441,35
1001,99	18820,35
1002,41	18298,95
1002,84	19129,46
1003,27	17533,34
1003,69	18900,96
1004,12	18841,02
1004,54	19978,63
1004,97	18384,59
1005,39	17254,54
1005,82	18915,43
1006,24	18611,69
1006,67	17717,62
1007,09	17138,36
1007,52	18150,43
1007,94	17973,11
1008,37	23242,22
1008,79	19820,02
1009,22	19509,25
1009,64	18859,62
1010,07	19121,18
1010,49	19749,56
1010,92	18188,59
1011,34	19132,56
1011,77	18485,74
1012,19	18941,27
1012,62	19017,77
1013,04	17566,28
1013,46	20133,16
1013,89	16983,18
1014,31	19411,93
1014,74	17831,95
1015,16	18510,51
1015,59	17665,11
1016,01	19110,84
1016,44	18099,91
1016,86	40782,95
1017,28	18121,56
1017,71	16948,25
1018,13	22277,69
1018,56	19967,22
1018,98	19206,00
1019,40	18072,07
1019,83	18347,44
1020,25	19033,28
1020,68	18887,53
1021,10	19043,62
1021,52	18294,83
1021,95	23218,15
1022,37	20023,22
1022,79	19698,79
1023,22	19442,99
1023,64	18814,16
1024,07	18929,90
1024,49	19321,88
1024,91	17754,70
1025,34	17803,11
1025,76	21552,04
1026,18	19359,14
1026,61	19065,34
1027,03	18719,11
1027,45	18704,65
1027,88	17888,61
1028,30	21401,04
1028,72	18701,55
1029,15	18660,23
1029,57	19007,43
1029,99	20405,05
1030,41	17499,38
1030,84	18836,89
1031,26	19498,89
1031,68	17933,95
1032,11	19818,99
1032,53	17739,25
1032,95	17737,19
1033,37	18828,62
1033,80	19686,35
1034,22	18068,98
1034,64	21034,76
1035,06	17913,34
1035,49	18187,55
1035,91	18747,00
1036,33	17229,86
1036,75	19498,89
1037,18	19761,99
1037,60	19477,15
1038,02	19954,78
1038,44	20601,32
1038,87	18356,73
1039,29	18317,52
1039,71	19074,64
1040,13	18161,77
1040,55	20398,82
1040,98	20355,22
1041,40	19576,56
1041,82	19829,35
1042,24	18673,66
1042,66	19731,94
1043,09	17522,02
1043,51	18376,34
1043,93	18110,22
1044,35	17284,37
1044,77	18501,22
1045,20	19324,99
1045,62	17806,20
1046,04	19065,34
1046,46	19508,21
1046,88	17828,86
1047,30	19913,31
1047,72	19426,42
1048,15	19683,25
1048,57	18547,68
1048,99	18453,74
1049,41	19209,10
1049,83	19763,03
1050,25	21080,52
1050,67	20139,38
1051,09	18818,29
1051,52	19124,28
1051,94	16538,61
1052,36	18710,84
1052,78	16994,48
1053,20	18347,44
1053,62	17873,16
1054,04	19111,87
1054,46	19425,39
1054,88	21059,72
1055,30	19997,29
1055,72	19984,85
1056,14	19143,94
1056,57	23853,75
1056,99	17782,51
1057,41	19323,95
1057,83	19284,63
1058,25	18099,91
1058,67	18478,51
1059,09	17999,91
1059,51	19769,24
1059,93	18851,36
1060,35	18229,84
1060,77	19661,49
1061,19	20138,35
1061,61	18768,69
1062,03	18442,39
1062,45	18023,62
1062,87	19651,13
1063,29	19763,03
1063,71	18364,99
1064,13	17815,47
1064,55	17251,46
1064,97	19831,42
1065,39	18625,12
1065,81	18474,38
1066,23	18924,73
1066,65	18339,19
1067,07	21101,32
1067,49	18662,30
1067,91	18142,18
1068,33	17425,29
1068,75	19823,13
1069,17	20033,59
1069,59	19939,23
1070,00	18407,30
1070,42	19471,97
1070,84	18254,60
1071,26	17740,28
1071,68	17454,10
1072,10	19545,49
1072,52	18324,75
1072,94	17394,43
1073,36	17911,28
1073,78	18081,35
1074,20	18894,76
1074,62	17912,31
1075,03	17790,75
1075,45	18345,38
1075,87	19688,43
1076,29	18115,37
1076,71	19513,39
1077,13	20491,23
1077,55	16855,80
1077,97	18785,22
1078,38	18126,71
1078,80	18390,78
1079,22	19070,51
1079,64	18538,39
1080,06	18386,66
1080,48	19149,11
1080,89	18612,73
1081,31	18254,60
1081,73	18632,35
1082,15	18804,86
1082,57	19895,69
1082,99	18724,27
1083,40	18339,19
1083,82	20378,06
1084,24	17736,16
1084,66	18110,22
1085,08	19094,29
1085,49	17029,42
1085,91	19409,86
1086,33	37899,17
1086,75	19520,64
1087,17	17829,89
1087,58	18009,19
1088,00	18278,32
1088,42	19848,01
1088,84	18468,19
1089,25	17632,16
1089,67	18106,09
1090,09	18274,19
1090,51	17659,96
1090,92	18504,32
1091,34	18086,50
1091,76	18573,49
1092,18	18392,85
1092,59	18516,71
1093,01	18227,78
1093,43	18480,58
1093,84	17887,58
1094,26	18456,83
1094,68	19081,88
1095,10	17471,59
1095,51	18471,29
1095,93	17882,43
1096,35	19201,86
1096,76	19326,02
1097,18	19050,86
1097,60	18514,64
1098,01	18124,65
1098,43	17654,81
1098,85	18367,05
1099,26	18080,32
1099,68	18503,29
1100,10	17402,66
1100,51	17864,92
1100,93	18308,24
1101,35	18395,94
1101,76	18637,51
1102,18	27337,33
1102,60	20326,16
1103,01	16423,71
1103,43	18459,93
1103,84	18168,99
1104,26	17702,17
1104,68	18326,81
1105,09	16485,26
1105,51	17035,59
1105,92	19480,26
1106,34	16952,36
1106,76	18865,82
1107,17	18618,92
1107,59	18818,29
1108,00	16588,89
1108,42	18124,65
1108,83	16703,84
1109,25	17615,69
1109,67	16924,62
1110,08	17025,31
1110,50	16478,08
1110,91	17778,39
1111,33	16879,43
1111,74	16787,00
1112,16	18160,74
1112,57	18291,73
1112,99	17333,73
1113,41	17752,64
1113,82	17263,80
1114,24	18041,14
1114,65	17803,11
1115,07	16944,14
1115,48	16500,65
1115,90	1878,70
1116,31	2210,95
1116,73	2176,03
1117,14	2174,03
>>>>>End Processed Spectral Data<<<<<
