SpectraSuite Data File
++++++++++++++++++++++++++++++++++++
Date: Wed Jul 27 14:23:28 EEST 2016
User: OO Maya
Dark Spectrum Present: No
Reference Spectrum Present: No
Number of Sampled Component Spectra: 1
Spectrometers: MAYP11278
Integration Time (usec): 15000000 (MAYP11278)
Spectra Averaged: 1 (MAYP11278)
Boxcar Smoothing: 0 (MAYP11278)
Correct for Electrical Dark: No (MAYP11278)
Strobe/Lamp Enabled: No (MAYP11278)
Correct for Detector Non-linearity: Yes (MAYP11278)
Correct for Stray Light: No (MAYP11278)
Number of Pixels in Processed Spectrum: 2068
>>>>>Begin Processed Spectral Data<<<<<
187,82	2352,62
188,30	2264,82
188,78	2232,90
189,26	2246,86
189,73	17542,60
190,21	19562,06
190,69	20143,53
191,17	20618,98
191,64	21790,63
192,12	20766,53
192,60	20315,78
193,07	19655,28
193,55	20677,16
194,03	20404,01
194,51	21068,04
194,98	20386,37
195,46	22006,44
195,94	20397,79
196,42	20696,90
196,89	23760,49
197,37	20747,82
197,85	19814,84
198,32	20193,33
198,80	19758,88
199,28	21276,13
199,76	21695,80
200,23	20279,46
200,71	20459,04
201,19	21671,84
201,66	21715,60
202,14	21523,92
202,62	19573,45
203,09	21340,66
203,57	19852,15
204,05	21912,60
204,53	22319,44
205,00	20205,78
205,48	20194,37
205,96	22515,72
206,43	20323,05
206,91	21196,00
207,39	24081,23
207,86	21132,53
208,34	21639,54
208,82	20564,97
209,29	21787,51
209,77	21458,31
210,25	20987,96
210,72	20626,25
211,20	21409,37
211,68	20799,78
212,15	20414,40
212,63	23165,84
213,11	21580,16
213,58	20456,97
214,06	22940,99
214,53	21329,21
215,01	22823,92
215,49	21548,91
215,96	21858,39
216,44	21678,09
216,92	21703,10
217,39	20204,74
217,87	20627,29
218,35	22424,87
218,82	19689,46
219,30	20337,58
219,77	20383,25
220,25	21096,12
220,73	23951,23
221,20	20359,38
221,68	22214,03
222,15	20181,92
222,63	22126,39
223,11	20642,88
223,58	21987,67
224,06	20874,62
224,53	20659,50
225,01	20175,69
225,49	20844,48
225,96	20335,50
226,44	21190,80
226,91	22276,65
227,39	20793,55
227,87	22378,94
228,34	21798,97
228,82	21823,99
229,29	20869,43
229,77	21008,76
230,24	20610,67
230,72	22070,06
231,20	21882,36
231,67	21253,23
232,15	21267,80
232,62	20283,61
233,10	21424,99
233,57	21640,58
234,05	25387,78
234,53	21716,64
235,00	20695,86
235,48	20281,53
235,95	19981,74
236,43	22167,08
236,90	23765,73
237,38	20772,76
237,85	21504,13
238,33	21369,81
238,80	21532,25
239,28	21132,53
239,75	20008,70
240,23	21912,60
240,71	22861,54
241,18	21503,09
241,66	21123,17
242,13	22267,25
242,61	22812,42
243,08	20161,17
243,56	20532,77
244,03	22238,03
244,51	22985,95
244,98	21019,16
245,46	22979,68
245,93	68393,61
246,41	19885,32
246,88	21464,56
247,36	21344,83
247,83	21437,48
248,31	21739,57
248,78	19708,11
249,26	21490,59
249,73	22182,73
250,21	21656,21
250,68	23033,01
251,16	21523,92
251,63	23941,79
252,10	23112,49
252,58	20923,49
253,05	22961,90
253,53	21410,41
254,00	21181,43
254,48	21533,29
254,95	21659,33
255,43	22304,83
255,90	20741,58
256,38	21676,00
256,85	22109,70
257,33	22711,06
257,80	25163,78
258,27	21818,78
258,75	20978,60
259,22	21933,45
259,70	22283,95
260,17	23380,36
260,65	21684,34
261,12	20897,50
261,59	22803,01
262,07	20776,92
262,54	22072,15
263,02	21306,31
263,49	20214,08
263,97	22434,27
264,44	22835,41
264,91	21113,81
265,39	21638,50
265,86	22078,41
266,34	22363,28
266,81	21010,84
267,28	21589,54
267,76	21686,42
268,23	22215,08
268,71	19885,32
269,18	20664,69
269,65	21057,64
270,13	22220,30
270,60	23105,17
271,08	21401,04
271,55	21722,89
272,02	20451,77
272,50	20613,79
272,97	19871,85
273,44	21574,95
273,92	26179,61
274,39	22710,01
274,87	22924,27
275,34	21355,24
275,81	21810,44
276,29	22336,14
276,76	22846,91
277,23	20738,47
277,71	21762,49
278,18	20824,73
278,65	26906,39
279,13	21564,54
279,60	21446,85
280,07	26702,68
280,55	23132,37
281,02	25975,19
281,50	21342,74
281,97	23231,75
282,44	21972,03
282,91	21898,00
283,39	22749,72
283,86	21037,88
284,33	21058,68
284,81	23075,89
285,28	22078,41
285,75	22664,04
286,23	22484,39
286,70	20841,36
287,17	22932,63
287,65	24485,14
288,12	21982,46
288,59	23104,13
289,07	20364,57
289,54	24004,69
290,01	21527,04
290,48	22784,20
290,96	21630,16
291,43	22876,18
291,90	25008,20
292,38	21632,25
292,85	23612,79
293,32	21889,66
293,79	22845,87
294,27	23072,75
294,74	21784,38
295,21	22276,65
295,69	22647,32
296,16	24529,23
296,63	24474,64
297,10	23380,36
297,58	23070,66
298,05	22770,62
298,52	22196,30
298,99	24535,52
299,47	22239,08
299,94	22983,86
300,41	21782,30
300,88	23549,96
301,36	23564,62
301,83	23538,44
302,30	21527,04
302,77	23257,91
303,25	23423,27
303,72	21673,92
304,19	21935,54
304,66	21501,00
305,13	22454,11
305,61	22718,37
306,08	22600,32
306,55	23261,05
307,02	22030,43
307,49	22053,38
307,97	22689,11
308,44	21914,68
308,91	23332,21
309,38	23609,65
309,86	22819,74
310,33	22398,77
310,80	22885,59
311,27	21376,06
311,74	23402,34
312,21	22150,39
312,69	24414,82
313,16	21590,58
313,63	21960,56
314,10	22677,62
314,57	22037,73
315,05	22294,39
315,52	24229,11
315,99	24378,09
316,46	24553,37
316,93	25670,86
317,40	25923,58
317,88	30018,86
318,35	27325,71
318,82	27934,80
319,29	27301,40
319,76	30254,90
320,23	32635,73
320,70	31980,96
321,18	31161,89
321,65	30270,85
322,12	31130,99
322,59	34330,79
323,06	32052,48
323,53	35312,26
324,00	31120,34
324,48	32731,94
324,95	32485,04
325,42	32175,26
325,89	32282,06
326,36	32777,91
326,83	34054,11
327,30	34247,13
327,77	34349,03
328,24	34146,32
328,72	33305,32
329,19	32694,52
329,66	32460,46
330,13	31703,51
330,60	32754,39
331,07	31885,97
331,54	32890,19
332,01	30085,83
332,48	33694,03
332,95	32705,21
333,43	32809,99
333,90	34216,02
334,37	33242,17
334,84	33800,10
335,31	37753,27
335,78	31969,21
336,25	32725,52
336,72	31598,98
337,19	31875,29
337,66	30891,31
338,13	30875,34
338,60	32734,08
339,07	32061,02
339,54	29113,02
340,01	29315,69
340,49	29356,03
340,96	30767,80
341,43	31327,08
341,90	29499,35
342,37	30106,03
342,84	30522,98
343,31	29845,62
343,78	28834,08
344,25	29133,17
344,72	28455,72
345,19	28916,79
345,66	29662,89
346,13	28369,92
346,60	27782,45
347,07	30454,88
347,54	27784,57
348,01	29697,95
348,48	28609,36
348,95	26711,12
349,42	27980,30
349,89	28790,61
350,36	27971,84
350,83	26687,91
351,30	28058,62
351,77	30108,16
352,24	27995,12
352,71	27396,52
353,18	27541,33
353,65	27940,09
354,12	27455,71
354,59	27999,35
355,06	27436,68
355,53	28918,91
356,00	26458,99
356,47	28721,71
356,94	25890,93
357,41	30408,07
357,88	27566,71
358,35	25225,81
358,82	25734,02
359,28	25975,19
359,75	25863,54
360,22	27474,73
360,69	28168,72
361,16	25878,29
361,63	26241,79
362,10	26428,41
362,57	26408,37
363,04	27435,62
363,51	31830,47
363,98	32516,03
364,45	38234,35
364,92	43203,87
365,39	32846,35
365,86	27906,23
366,32	27898,82
366,79	26095,30
367,26	39739,09
367,73	23608,60
368,20	24339,26
368,67	26191,20
369,14	24230,16
369,61	26158,53
370,08	25565,60
370,55	24644,72
371,02	33680,10
371,48	25415,14
371,95	24388,58
372,42	23206,64
372,89	23818,12
373,36	24628,96
373,83	23371,98
374,30	23695,54
374,77	24987,18
375,23	22882,45
375,70	26366,20
376,17	23835,94
376,64	23152,24
377,11	23350,00
377,58	24864,24
378,05	24390,68
378,51	24141,00
378,98	24533,42
379,45	24204,98
379,92	24889,45
380,39	27351,07
380,86	24405,37
381,33	25972,03
381,79	25978,35
382,26	22815,56
382,73	24481,99
383,20	23754,21
383,67	25201,63
384,14	23887,29
384,60	30905,16
385,07	24168,27
385,54	23588,71
386,01	23752,11
386,48	26229,15
386,94	23232,80
387,41	22829,14
387,88	25190,06
388,35	24680,42
388,82	25696,12
389,28	23474,57
389,75	25018,71
390,22	24615,31
390,69	24969,31
391,16	24596,42
391,62	24589,07
392,09	24741,33
392,56	24095,91
393,03	24100,10
393,50	27625,92
393,96	24528,18
394,43	25966,76
394,90	23911,40
395,37	25988,89
395,83	31115,01
396,30	23759,45
396,77	25874,07
397,24	26260,77
397,70	24319,33
398,17	25644,54
398,64	25404,62
399,11	25144,85
399,57	27838,52
400,04	25566,66
400,51	27107,02
400,98	27346,84
401,44	28803,33
401,91	29691,57
402,38	32423,07
402,84	39642,53
403,31	57297,18
403,78	68393,61
404,25	68393,61
404,71	68393,61
405,18	49001,03
405,65	37326,67
406,12	38934,67
406,58	40220,01
407,05	44553,77
407,52	45090,68
407,98	44786,00
408,45	45232,11
408,92	45317,64
409,38	50153,29
409,85	50540,57
410,32	55946,25
410,78	56957,85
411,25	62533,42
411,72	64940,60
412,18	67681,08
412,65	68393,61
413,12	68393,61
413,59	68393,61
414,05	68393,61
414,52	68393,61
414,98	68393,61
415,45	68393,61
415,92	68393,61
416,38	68393,61
416,85	68393,61
417,32	68393,61
417,78	68393,61
418,25	68393,61
418,72	68393,61
419,18	68393,61
419,65	68393,61
420,12	68393,61
420,58	68393,61
421,05	68393,61
421,51	68393,61
421,98	68393,61
422,45	68393,61
422,91	68393,61
423,38	68393,61
423,85	68393,61
424,31	68393,61
424,78	68393,61
425,24	68393,61
425,71	68393,61
426,18	68393,61
426,64	68393,61
427,11	68393,61
427,57	68393,61
428,04	68393,61
428,51	68393,61
428,97	68393,61
429,44	68393,61
429,90	68393,61
430,37	68393,61
430,83	68393,61
431,30	68393,61
431,77	68393,61
432,23	68393,61
432,70	68393,61
433,16	68393,61
433,63	68393,61
434,09	68393,61
434,56	68393,61
435,03	68393,61
435,49	68393,61
435,96	68393,61
436,42	68393,61
436,89	68393,61
437,35	68393,61
437,82	68393,61
438,28	68393,61
438,75	68393,61
439,21	68393,61
439,68	68393,61
440,14	68393,61
440,61	68393,61
441,07	68393,61
441,54	68393,61
442,00	68393,61
442,47	68393,61
442,94	68393,61
443,40	68393,61
443,87	68393,61
444,33	68393,61
444,80	68393,61
445,26	68393,61
445,73	68393,61
446,19	68393,61
446,65	68393,61
447,12	68393,61
447,58	68393,61
448,05	68393,61
448,51	68393,61
448,98	68393,61
449,44	68393,61
449,91	68393,61
450,37	68393,61
450,84	68393,61
451,30	68393,61
451,77	68393,61
452,23	68393,61
452,70	68393,61
453,16	68393,61
453,62	68393,61
454,09	68393,61
454,55	68393,61
455,02	68393,61
455,48	68393,61
455,95	68393,61
456,41	68393,61
456,88	68393,61
457,34	68393,61
457,80	68393,61
458,27	68393,61
458,73	68393,61
459,20	68393,61
459,66	68393,61
460,13	68393,61
460,59	68393,61
461,05	68393,61
461,52	68393,61
461,98	68393,61
462,45	68393,61
462,91	68393,61
463,37	68393,61
463,84	68393,61
464,30	68393,61
464,76	68393,61
465,23	68393,61
465,69	68393,61
466,16	68393,61
466,62	68393,61
467,08	68393,61
467,55	68393,61
468,01	68393,61
468,48	68393,61
468,94	68393,61
469,40	68393,61
469,87	68393,61
470,33	68393,61
470,79	68393,61
471,26	68393,61
471,72	68393,61
472,18	68393,61
472,65	68393,61
473,11	68393,61
473,57	68393,61
474,04	68393,61
474,50	68393,61
474,96	68393,61
475,43	68393,61
475,89	68393,61
476,35	68393,61
476,82	68393,61
477,28	68393,61
477,74	68393,61
478,21	68393,61
478,67	68393,61
479,13	68393,61
479,59	68393,61
480,06	68393,61
480,52	68393,61
480,98	68393,61
481,45	68393,61
481,91	68393,61
482,37	68393,61
482,84	68393,61
483,30	68393,61
483,76	68393,61
484,22	68393,61
484,69	68393,61
485,15	68393,61
485,61	68393,61
486,07	68393,61
486,54	68393,61
487,00	68393,61
487,46	68393,61
487,92	68393,61
488,39	68393,61
488,85	68393,61
489,31	68393,61
489,77	68393,61
490,24	68393,61
490,70	68393,61
491,16	68393,61
491,62	68393,61
492,09	68393,61
492,55	68393,61
493,01	68393,61
493,47	68393,61
493,94	68393,61
494,40	68393,61
494,86	68393,61
495,32	68393,61
495,78	68393,61
496,25	68393,61
496,71	68393,61
497,17	68393,61
497,63	68393,61
498,09	68393,61
498,56	68393,61
499,02	68393,61
499,48	68393,61
499,94	68393,61
500,40	68393,61
500,87	68393,61
501,33	68393,61
501,79	68393,61
502,25	68393,61
502,71	68393,61
503,17	68393,61
503,64	68393,61
504,10	68393,61
504,56	68393,61
505,02	68393,61
505,48	68393,61
505,94	68393,61
506,40	68393,61
506,87	68393,61
507,33	68393,61
507,79	68393,61
508,25	68393,61
508,71	68393,61
509,17	68393,61
509,63	68393,61
510,10	68393,61
510,56	68393,61
511,02	68393,61
511,48	68393,61
511,94	68393,61
512,40	68393,61
512,86	68393,61
513,32	68393,61
513,78	68393,61
514,25	68393,61
514,71	68393,61
515,17	68393,61
515,63	68393,61
516,09	68393,61
516,55	68393,61
517,01	68393,61
517,47	68393,61
517,93	68393,61
518,39	68393,61
518,85	68393,61
519,32	68393,61
519,78	68393,61
520,24	68393,61
520,70	68393,61
521,16	68393,61
521,62	68393,61
522,08	68393,61
522,54	68393,61
523,00	68393,61
523,46	68393,61
523,92	68393,61
524,38	68393,61
524,84	68393,61
525,30	68393,61
525,76	68393,61
526,22	68393,61
526,68	68393,61
527,14	68393,61
527,60	68393,61
528,06	68393,61
528,52	68393,61
528,98	68393,61
529,44	68393,61
529,90	68393,61
530,36	68393,61
530,82	68393,61
531,28	68393,61
531,74	68393,61
532,20	68393,61
532,66	68393,61
533,12	68393,61
533,58	68393,61
534,04	68393,61
534,50	68393,61
534,96	68393,61
535,42	68393,61
535,88	68393,61
536,34	68393,61
536,80	68393,61
537,26	68393,61
537,72	68393,61
538,18	68393,61
538,64	68393,61
539,10	68393,61
539,56	68393,61
540,02	68393,61
540,48	68393,61
540,94	68393,61
541,40	68393,61
541,86	68393,61
542,32	68393,61
542,78	68393,61
543,24	68393,61
543,69	68393,61
544,15	68393,61
544,61	68393,61
545,07	68393,61
545,53	68393,61
545,99	68393,61
546,45	68393,61
546,91	68393,61
547,37	68393,61
547,83	68393,61
548,29	68393,61
548,74	68393,61
549,20	68393,61
549,66	68393,61
550,12	68393,61
550,58	68393,61
551,04	68393,61
551,50	68393,61
551,96	68393,61
552,42	68393,61
552,87	68393,61
553,33	68393,61
553,79	68393,61
554,25	68393,61
554,71	68393,61
555,17	68393,61
555,63	68393,61
556,08	68393,61
556,54	68393,61
557,00	68393,61
557,46	68393,61
557,92	68393,61
558,38	68393,61
558,83	68393,61
559,29	68393,61
559,75	68393,61
560,21	68393,61
560,67	68393,61
561,13	68393,61
561,58	68393,61
562,04	68393,61
562,50	68393,61
562,96	68393,61
563,42	68393,61
563,87	68393,61
564,33	68393,61
564,79	68393,61
565,25	68393,61
565,71	68393,61
566,16	68393,61
566,62	68393,61
567,08	68393,61
567,54	68393,61
568,00	68393,61
568,45	68393,61
568,91	68393,61
569,37	68393,61
569,83	68393,61
570,28	68393,61
570,74	68393,61
571,20	68393,61
571,66	68393,61
572,11	68393,61
572,57	68393,61
573,03	68393,61
573,49	68393,61
573,94	68393,61
574,40	68393,61
574,86	68393,61
575,32	68393,61
575,77	68393,61
576,23	68393,61
576,69	68393,61
577,15	68393,61
577,60	68393,61
578,06	68393,61
578,52	68393,61
578,97	68393,61
579,43	68393,61
579,89	68393,61
580,34	68393,61
580,80	68393,61
581,26	68393,61
581,72	68393,61
582,17	68393,61
582,63	68393,61
583,09	68393,61
583,54	68393,61
584,00	68393,61
584,46	68393,61
584,91	68393,61
585,37	68393,61
585,83	68393,61
586,28	68393,61
586,74	68393,61
587,20	68393,61
587,65	68393,61
588,11	68393,61
588,57	68393,61
589,02	68393,61
589,48	68393,61
589,94	68393,61
590,39	68393,61
590,85	68393,61
591,30	68393,61
591,76	68393,61
592,22	68393,61
592,67	68393,61
593,13	68393,61
593,59	68393,61
594,04	68393,61
594,50	68393,61
594,95	68393,61
595,41	68393,61
595,87	68393,61
596,32	68393,61
596,78	68393,61
597,23	68393,61
597,69	68393,61
598,15	68393,61
598,60	68393,61
599,06	68393,61
599,51	68393,61
599,97	68393,61
600,43	68393,61
600,88	68393,61
601,34	68393,61
601,79	68393,61
602,25	68393,61
602,70	68393,61
603,16	68393,61
603,61	68393,61
604,07	68393,61
604,53	68393,61
604,98	68393,61
605,44	68393,61
605,89	68393,61
606,35	68393,61
606,80	68393,61
607,26	68393,61
607,71	68393,61
608,17	68393,61
608,62	68393,61
609,08	68393,61
609,53	68393,61
609,99	68393,61
610,44	68393,61
610,90	68393,61
611,35	68393,61
611,81	68393,61
612,26	68393,61
612,72	68393,61
613,17	68393,61
613,63	68393,61
614,08	68393,61
614,54	68393,61
614,99	68393,61
615,45	68393,61
615,90	68393,61
616,36	68393,61
616,81	68393,61
617,27	68393,61
617,72	68393,61
618,18	68393,61
618,63	68393,61
619,09	68393,61
619,54	68393,61
619,99	68393,61
620,45	68393,61
620,90	68393,61
621,36	68393,61
621,81	68393,61
622,27	68393,61
622,72	68393,61
623,18	68393,61
623,63	68393,61
624,08	68393,61
624,54	68393,61
624,99	68393,61
625,45	68393,61
625,90	68393,61
626,35	68393,61
626,81	68393,61
627,26	68393,61
627,72	68393,61
628,17	68393,61
628,62	68393,61
629,08	68393,61
629,53	68393,61
629,99	68393,61
630,44	68393,61
630,89	68393,61
631,35	68393,61
631,80	68393,61
632,26	68393,61
632,71	68393,61
633,16	68393,61
633,62	68393,61
634,07	68393,61
634,52	68393,61
634,98	68393,61
635,43	68393,61
635,88	68393,61
636,34	68393,61
636,79	68393,61
637,24	68393,61
637,70	68393,61
638,15	68393,61
638,60	68393,61
639,06	68393,61
639,51	68393,61
639,96	68393,61
640,42	68393,61
640,87	68393,61
641,32	68393,61
641,78	68393,61
642,23	68393,61
642,68	68393,61
643,14	68393,61
643,59	68393,61
644,04	68393,61
644,49	68393,61
644,95	68393,61
645,40	68393,61
645,85	68393,61
646,31	68393,61
646,76	68393,61
647,21	68393,61
647,66	68393,61
648,12	68393,61
648,57	68393,61
649,02	68393,61
649,47	68393,61
649,93	68393,61
650,38	68393,61
650,83	68393,61
651,28	68393,61
651,74	68393,61
652,19	68393,61
652,64	68393,61
653,09	68393,61
653,55	68393,61
654,00	68393,61
654,45	68393,61
654,90	68393,61
655,35	68393,61
655,81	68393,61
656,26	68393,61
656,71	68393,61
657,16	68393,61
657,62	68393,61
658,07	68393,61
658,52	68393,61
658,97	68393,61
659,42	68393,61
659,88	68393,61
660,33	68393,61
660,78	68393,61
661,23	68393,61
661,68	68393,61
662,13	68393,61
662,59	68393,61
663,04	68393,61
663,49	68393,61
663,94	68393,61
664,39	68393,61
664,84	68393,61
665,30	68393,61
665,75	68393,61
666,20	68393,61
666,65	68393,61
667,10	68393,61
667,55	68393,61
668,00	68393,61
668,46	68393,61
668,91	68393,61
669,36	68393,61
669,81	68393,61
670,26	68393,61
670,71	68393,61
671,16	68393,61
671,61	68393,61
672,06	68393,61
672,52	68393,61
672,97	68393,61
673,42	68393,61
673,87	68393,61
674,32	68393,61
674,77	68393,61
675,22	68393,61
675,67	68393,61
676,12	68393,61
676,57	68393,61
677,02	68393,61
677,47	68393,61
677,93	68393,61
678,38	68393,61
678,83	68393,61
679,28	68393,61
679,73	68393,61
680,18	68393,61
680,63	68393,61
681,08	68393,61
681,53	68393,61
681,98	68393,61
682,43	68393,61
682,88	68393,61
683,33	68393,61
683,78	68393,61
684,23	68393,61
684,68	68393,61
685,13	68393,61
685,58	68393,61
686,03	68393,61
686,48	68393,61
686,93	68393,61
687,38	68393,61
687,83	68393,61
688,28	68393,61
688,73	68393,61
689,18	68393,61
689,63	68393,61
690,08	68393,61
690,53	68393,61
690,98	68393,61
691,43	68393,61
691,88	68393,61
692,33	68393,61
692,78	68393,61
693,23	68393,61
693,68	68393,61
694,13	68393,61
694,58	68393,61
695,03	68393,61
695,48	68393,61
695,93	68393,61
696,38	68393,61
696,83	68393,61
697,28	68393,61
697,72	68393,61
698,17	68393,61
698,62	68393,61
699,07	68393,61
699,52	68393,61
699,97	68393,61
700,42	68393,61
700,87	68393,61
701,32	68393,61
701,77	68393,61
702,22	68393,61
702,67	68393,61
703,11	68393,61
703,56	68393,61
704,01	68393,61
704,46	68393,61
704,91	68393,61
705,36	68393,61
705,81	68393,61
706,26	68393,61
706,70	68393,61
707,15	68393,61
707,60	68393,61
708,05	68393,61
708,50	68393,61
708,95	68393,61
709,40	68393,61
709,84	68393,61
710,29	68393,61
710,74	68393,61
711,19	68393,61
711,64	68393,61
712,09	68393,61
712,53	68393,61
712,98	68393,61
713,43	68393,61
713,88	68393,61
714,33	68393,61
714,78	68393,61
715,22	68393,61
715,67	68393,61
716,12	68393,61
716,57	68393,61
717,02	68393,61
717,46	68393,61
717,91	68393,61
718,36	68393,61
718,81	68393,61
719,26	68393,61
719,70	68393,61
720,15	68393,61
720,60	68393,61
721,05	68393,61
721,49	68393,61
721,94	68393,61
722,39	68393,61
722,84	68393,61
723,28	68393,61
723,73	68393,61
724,18	68393,61
724,63	68393,61
725,07	68393,61
725,52	68393,61
725,97	68393,61
726,42	68393,61
726,86	68393,61
727,31	68393,61
727,76	68393,61
728,21	68393,61
728,65	68393,61
729,10	68393,61
729,55	68393,61
729,99	68393,61
730,44	68393,61
730,89	68393,61
731,33	68393,61
731,78	68393,61
732,23	68393,61
732,68	68393,61
733,12	68393,61
733,57	68393,61
734,02	68393,61
734,46	68393,61
734,91	68393,61
735,36	68393,61
735,80	68393,61
736,25	68393,61
736,70	68393,61
737,14	68393,61
737,59	68393,61
738,04	68393,61
738,48	68393,61
738,93	68393,61
739,37	68393,61
739,82	68393,61
740,27	68393,61
740,71	68393,61
741,16	68393,61
741,61	68393,61
742,05	68393,61
742,50	68393,61
742,94	68393,61
743,39	68393,61
743,84	68393,61
744,28	68393,61
744,73	68393,61
745,18	68393,61
745,62	68393,61
746,07	68393,61
746,51	68393,61
746,96	68393,61
747,40	68393,61
747,85	68393,61
748,30	68393,61
748,74	68393,61
749,19	68393,61
749,63	68393,61
750,08	68393,61
750,52	68393,61
750,97	68393,61
751,42	68393,61
751,86	68393,61
752,31	68393,61
752,75	68393,61
753,20	68393,61
753,64	68393,61
754,09	68393,61
754,53	68393,61
754,98	68393,61
755,42	68393,61
755,87	68393,61
756,31	68393,61
756,76	68393,61
757,20	68393,61
757,65	68393,61
758,09	68393,61
758,54	68393,61
758,98	68393,61
759,43	68393,61
759,87	68393,61
760,32	68393,61
760,76	68393,61
761,21	68393,61
761,65	68393,61
762,10	68393,61
762,54	68393,61
762,99	68393,61
763,43	68393,61
763,88	68393,61
764,32	68393,61
764,77	68393,61
765,21	68393,61
765,66	68393,61
766,10	68393,61
766,54	68393,61
766,99	68393,61
767,43	68393,61
767,88	68393,61
768,32	68393,61
768,77	68393,61
769,21	68393,61
769,66	68393,61
770,10	68393,61
770,54	68393,61
770,99	68393,61
771,43	68393,61
771,88	68393,61
772,32	68393,61
772,76	68393,61
773,21	68393,61
773,65	68393,61
774,10	68393,61
774,54	68393,61
774,98	68393,61
775,43	68393,61
775,87	68393,61
776,31	68393,61
776,76	68393,61
777,20	68393,61
777,65	68393,61
778,09	68393,61
778,53	68393,61
778,98	68393,61
779,42	68393,61
779,86	68393,61
780,31	68393,61
780,75	68393,61
781,19	68393,61
781,64	68393,61
782,08	68393,61
782,52	68393,61
782,97	68393,61
783,41	68393,61
783,85	68393,61
784,30	68393,61
784,74	68393,61
785,18	68393,61
785,63	68393,61
786,07	68393,61
786,51	68393,61
786,95	68393,61
787,40	68393,61
787,84	68393,61
788,28	68393,61
788,73	68393,61
789,17	68393,61
789,61	68393,61
790,05	68393,61
790,50	68393,61
790,94	68393,61
791,38	68393,61
791,82	68393,61
792,27	68393,61
792,71	68393,61
793,15	68393,61
793,59	68393,61
794,04	68393,61
794,48	68393,61
794,92	68393,61
795,36	68393,61
795,81	68393,61
796,25	68393,61
796,69	68393,61
797,13	68393,61
797,57	68393,61
798,02	68393,61
798,46	68393,61
798,90	68393,61
799,34	68393,61
799,79	68393,61
800,23	68393,61
800,67	68393,61
801,11	68393,61
801,55	68393,61
801,99	68393,61
802,44	68393,61
802,88	68393,61
803,32	68393,61
803,76	68393,61
804,20	68393,61
804,64	68393,61
805,09	68393,61
805,53	68393,61
805,97	68393,61
806,41	68393,61
806,85	68393,61
807,29	68393,61
807,74	68393,61
808,18	68393,61
808,62	68393,61
809,06	68393,61
809,50	68393,61
809,94	68393,61
810,38	68393,61
810,82	68393,61
811,27	68393,61
811,71	68393,61
812,15	68393,61
812,59	68393,61
813,03	68393,61
813,47	68393,61
813,91	68393,61
814,35	68393,61
814,79	68393,61
815,23	68393,61
815,67	68393,61
816,12	68393,61
816,56	68393,61
817,00	68393,61
817,44	68393,61
817,88	68393,61
818,32	68393,61
818,76	68393,61
819,20	68393,61
819,64	68393,61
820,08	68393,61
820,52	68393,61
820,96	68393,61
821,40	68393,61
821,84	68393,61
822,28	68393,61
822,72	68393,61
823,16	68393,61
823,60	68393,61
824,04	68393,61
824,48	68393,61
824,92	68393,61
825,36	68393,61
825,80	68393,61
826,24	68393,61
826,68	68393,61
827,12	68393,61
827,56	68393,61
828,00	68393,61
828,44	68393,61
828,88	68393,61
829,32	68393,61
829,76	68393,61
830,20	68393,61
830,64	66978,15
831,08	68393,61
831,52	66489,91
831,96	64524,69
832,40	62122,51
832,84	63037,96
833,28	63145,08
833,72	64944,09
834,16	63944,19
834,60	62465,41
835,04	61305,45
835,48	62653,67
835,91	60216,04
836,35	59474,84
836,79	58063,01
837,23	58415,22
837,67	56032,63
838,11	55598,57
838,55	56577,67
838,99	56338,35
839,43	59382,33
839,87	61389,77
840,30	58292,98
840,74	62131,56
841,18	59465,92
841,62	58441,90
842,06	56383,77
842,50	59255,31
842,94	56579,89
843,38	52463,16
843,81	51889,77
844,25	50161,01
844,69	48959,16
845,13	49855,46
845,57	49018,67
846,01	50123,50
846,45	48742,09
846,88	48485,43
847,32	49289,81
847,76	48173,78
848,20	48342,26
848,64	47719,18
849,08	48440,27
849,51	48668,28
849,95	47415,53
850,39	45784,97
850,83	47269,24
851,27	44904,35
851,70	45542,49
852,14	47100,99
852,58	44139,92
853,02	43177,65
853,46	44183,70
853,89	42223,65
854,33	44868,19
854,77	42240,01
855,21	42776,85
855,65	44342,43
856,08	44311,77
856,52	41897,69
856,96	41664,52
857,40	40787,30
857,83	38705,08
858,27	41140,83
858,71	37522,10
859,15	38196,49
859,58	38554,61
860,02	39057,09
860,46	39286,84
860,89	40200,46
861,33	38616,31
861,77	38949,83
862,21	38784,12
862,64	37827,84
863,08	37383,89
863,52	38453,96
863,95	36030,85
864,39	36202,06
864,83	36195,60
865,27	34756,84
865,70	35952,27
866,14	34223,53
866,58	37064,41
867,01	35024,26
867,45	36317,31
867,89	35462,77
868,32	34968,40
868,76	35890,92
869,20	34927,59
869,63	36294,69
870,07	37447,59
870,51	32271,38
870,94	32879,50
871,38	32796,09
871,82	31746,18
872,25	32737,28
872,69	33309,60
873,13	32536,33
873,56	34061,62
874,00	33812,96
874,43	32400,63
874,87	31716,31
875,31	34094,85
875,74	30598,54
876,18	32694,52
876,61	31735,51
877,05	31342,01
877,49	31311,09
877,92	30773,12
878,36	31010,60
878,79	29981,65
879,23	32372,86
879,67	29545,01
880,10	28908,30
880,54	29477,05
880,97	30580,45
881,41	31307,90
881,84	30005,04
882,28	30210,23
882,72	30061,38
883,15	29984,84
883,59	29053,61
884,02	30526,18
884,46	29660,77
884,89	29839,25
885,33	30074,14
885,76	28382,63
886,20	27888,24
886,63	30884,92
887,07	27488,47
887,50	27222,16
887,94	28203,66
888,37	27830,05
888,81	31950,00
889,24	26915,89
889,68	29463,25
890,11	27874,49
890,55	28772,59
890,98	28845,74
891,42	27005,64
891,85	27289,78
892,29	27302,46
892,72	26443,17
893,16	26817,72
893,59	27475,79
894,03	26701,63
894,46	27856,50
894,90	26237,58
895,33	25591,91
895,77	26774,44
896,20	27362,70
896,63	26007,85
897,07	25670,86
897,50	25777,19
897,94	27158,78
898,37	28310,61
898,81	25936,22
899,24	25885,66
899,68	25890,93
900,11	27400,74
900,54	26824,05
900,98	25509,83
901,41	28270,37
901,85	28457,84
902,28	24647,87
902,71	24700,37
903,15	27811,01
903,58	25287,86
904,02	26003,64
904,45	24842,17
904,88	24910,47
905,32	24187,15
905,75	27114,41
906,18	25444,59
906,62	26697,41
907,05	25745,60
907,48	25100,70
907,92	26095,30
908,35	27307,74
908,79	24835,87
909,22	23871,57
909,65	25380,42
910,09	25842,48
910,52	26485,36
910,95	27053,16
911,38	26301,88
911,82	29277,49
912,25	29874,31
912,68	27385,95
913,12	26035,24
913,55	24789,65
913,98	23631,65
914,42	24002,59
914,85	24230,16
915,28	23773,07
915,72	25196,37
916,15	23407,57
916,58	25205,83
917,01	23449,44
917,45	25021,86
917,88	22936,81
918,31	23602,32
918,74	23429,55
919,18	24590,12
919,61	24993,48
920,04	24043,48
920,47	26661,53
920,91	25391,99
921,34	24073,89
921,77	23677,73
922,20	24392,78
922,64	24868,44
923,07	25963,60
923,50	24351,86
923,93	22080,50
924,37	23982,68
924,80	22185,86
925,23	24223,86
925,66	25944,64
926,09	22478,12
926,53	23741,64
926,96	21620,79
927,39	25749,82
927,82	22833,32
928,25	21604,12
928,69	24232,25
929,12	22304,83
929,55	23345,82
929,98	23990,01
930,41	22049,20
930,84	23186,77
931,28	20836,16
931,71	25096,49
932,14	23807,64
932,57	26037,35
933,00	22122,22
933,43	23495,51
933,86	23379,31
934,30	23073,80
934,73	22602,41
935,16	20912,05
935,59	21859,43
936,02	21068,04
936,45	22336,14
936,88	20775,88
937,31	22748,67
937,75	21173,11
938,18	21159,58
938,61	22463,51
939,04	20661,58
939,47	21509,34
939,90	22685,98
940,33	24690,92
940,76	20656,38
941,19	22649,41
941,62	20446,58
942,05	20773,80
942,48	22238,03
942,91	20133,16
943,35	19745,41
943,78	22090,93
944,21	21930,32
944,64	21936,58
945,07	21240,75
945,50	21383,34
945,93	21564,54
946,36	22996,41
946,79	21065,96
947,22	21443,73
947,65	21963,69
948,08	19961,00
948,51	20083,37
948,94	20326,16
949,37	24539,72
949,80	22827,05
950,23	20860,07
950,66	20466,31
951,09	21546,83
951,52	19657,35
951,95	22142,04
952,38	20639,76
952,81	23791,93
953,24	19908,13
953,67	20586,78
954,10	20502,65
954,53	20603,40
954,96	20775,88
955,39	21823,99
955,82	20301,25
956,25	22049,20
956,68	25022,91
957,11	19759,92
957,53	21703,10
957,96	21351,07
958,39	20434,12
958,82	20413,36
959,25	20446,58
959,68	19148,07
960,11	20926,61
960,54	21763,54
960,97	21614,54
961,40	22575,25
961,83	22094,06
962,26	20518,23
962,68	21367,73
963,11	20748,86
963,54	21796,89
963,97	21767,71
964,40	20709,37
964,83	23180,49
965,26	21861,51
965,69	21569,74
966,11	22059,63
966,54	20148,72
966,97	20339,65
967,40	22217,16
967,83	26533,88
968,26	21757,28
968,69	20766,53
969,11	21508,29
969,54	19744,37
969,97	20269,08
970,40	21671,84
970,83	20243,14
971,26	20870,47
971,68	19586,91
972,11	19887,40
972,54	20459,04
972,97	21423,95
973,40	20473,58
973,82	21640,58
974,25	20965,08
974,68	20272,19
975,11	20064,70
975,54	19860,44
975,96	20954,68
976,39	19813,80
976,82	21828,16
977,25	21018,12
977,67	20624,18
978,10	20872,55
978,53	20424,78
978,96	21810,44
979,38	21496,84
979,81	20013,88
980,24	21133,57
980,67	21933,45
981,09	20627,29
981,52	20518,23
981,95	20106,19
982,38	20410,24
982,80	19849,04
983,23	21930,32
983,66	21626,00
984,08	19375,70
984,51	18635,45
984,94	20331,35
985,37	21186,64
985,79	20038,77
986,22	19650,10
986,65	20999,40
987,07	20315,78
987,50	20662,62
987,93	20261,81
988,35	20862,15
988,78	20346,92
989,21	20106,19
989,63	20968,20
990,06	20295,02
990,49	20856,95
990,91	22815,56
991,34	20101,00
991,77	19525,81
992,19	20300,21
992,62	19894,65
993,05	19817,95
993,47	21006,68
993,90	21326,09
994,32	20631,45
994,75	20435,16
995,18	18978,49
995,60	19190,48
996,03	18458,90
996,45	21680,17
996,88	21300,07
997,31	19833,50
997,73	20666,77
998,16	19419,18
998,58	22456,20
999,01	20342,77
999,44	20583,66
999,86	22184,82
1000,29	19465,76
1000,71	20773,80
1001,14	21258,44
1001,56	20362,49
1001,99	20815,37
1002,41	20388,44
1002,84	21226,18
1003,27	19675,99
1003,69	21103,41
1004,12	20866,31
1004,54	22443,67
1004,97	20569,12
1005,39	19469,90
1005,82	21392,71
1006,24	20908,93
1006,67	20117,60
1007,09	19811,73
1007,52	20827,85
1007,94	20791,47
1008,37	26433,68
1008,79	23073,80
1009,22	22869,91
1009,64	22323,61
1010,07	23175,26
1010,49	24448,40
1010,92	24687,77
1011,34	29626,78
1011,77	28515,05
1012,19	26855,72
1012,62	30569,81
1013,04	33707,96
1013,46	31785,66
1013,89	24275,26
1014,31	24782,30
1014,74	22168,12
1015,16	22386,25
1015,59	21250,11
1016,01	22369,54
1016,44	21067,00
1016,86	44730,13
1017,28	20881,90
1017,71	19614,88
1018,13	24924,13
1018,56	22391,47
1018,98	21739,57
1019,40	20429,97
1019,83	20798,74
1020,25	21229,30
1020,68	21109,65
1021,10	21330,25
1021,52	20441,39
1021,95	25677,17
1022,37	22131,61
1022,79	21503,09
1023,22	21271,97
1023,64	20642,88
1024,07	20711,45
1024,49	21466,64
1024,91	19433,67
1025,34	19626,27
1025,76	23449,44
1026,18	21038,92
1026,61	20921,41
1027,03	20306,44
1027,45	20690,67
1027,88	19776,50
1028,30	23421,18
1028,72	20579,51
1029,15	20298,14
1029,57	20656,38
1029,99	22255,78
1030,41	19023,98
1030,84	20435,16
1031,26	21364,60
1031,68	19634,56
1032,11	21481,22
1032,53	19402,61
1032,95	19355,00
1033,37	20674,04
1033,80	21307,35
1034,22	19608,66
1034,64	22819,74
1035,06	19626,27
1035,49	19583,81
1035,91	20346,92
1036,33	18636,48
1036,75	21169,99
1037,18	21358,36
1037,60	21116,93
1038,02	21395,84
1038,44	22188,99
1038,87	19816,91
1039,29	19729,87
1039,71	20584,70
1040,13	19632,49
1040,55	22015,83
1040,98	21823,99
1041,40	21159,58
1041,82	21436,44
1042,24	20104,11
1042,66	21201,20
1043,09	19131,52
1043,51	19871,85
1043,93	19644,92
1044,35	18985,72
1044,77	20042,92
1045,20	20918,29
1045,62	19302,22
1046,04	20598,21
1046,46	21033,72
1046,88	19257,73
1047,30	21469,76
1047,72	20896,46
1048,15	21278,21
1048,57	19974,48
1048,99	19922,64
1049,41	20888,14
1049,83	21142,94
1050,25	22892,90
1050,67	21728,10
1051,09	20264,93
1051,52	20585,74
1051,94	17849,46
1052,36	20311,63
1052,78	18392,85
1053,20	19776,50
1053,62	19557,92
1054,04	20486,04
1054,46	20956,76
1054,88	22638,97
1055,30	21473,93
1055,72	21393,75
1056,14	20529,66
1056,57	25492,99
1056,99	19148,07
1057,41	20762,37
1057,83	20896,46
1058,25	19671,85
1058,67	20058,48
1059,09	19562,06
1059,51	21363,56
1059,93	20183,99
1060,35	19641,81
1060,77	21030,60
1061,19	21668,71
1061,61	20423,74
1062,03	19990,03
1062,45	19532,03
1062,87	20976,52
1063,29	21197,04
1063,71	19675,99
1064,13	19282,56
1064,55	18649,90
1064,97	21491,63
1065,39	20125,90
1065,81	20013,88
1066,23	20377,02
1066,65	19532,03
1067,07	22612,85
1067,49	20075,07
1067,91	19512,35
1068,33	18740,80
1068,75	21183,51
1069,17	21387,51
1069,59	21172,07
1070,00	19843,86
1070,42	20832,00
1070,84	19595,20
1071,26	18930,94
1071,68	18633,38
1072,10	20947,40
1072,52	19930,94
1072,94	18889,59
1073,36	19498,89
1073,78	19507,18
1074,20	20419,59
1074,62	19177,04
1075,03	19108,77
1075,45	19841,79
1075,87	21136,70
1076,29	19514,42
1076,71	20896,46
1077,13	22061,72
1077,55	18170,02
1077,97	20232,76
1078,38	19460,58
1078,80	19828,31
1079,22	20559,78
1079,64	19963,08
1080,06	19751,63
1080,48	20488,12
1080,89	19978,63
1081,31	19754,74
1081,73	19984,85
1082,15	20206,82
1082,57	21151,26
1082,99	20127,97
1083,40	19599,34
1083,82	21705,18
1084,24	19189,45
1084,66	19520,64
1085,08	20518,23
1085,49	18372,21
1085,91	20772,76
1086,33	39879,08
1086,75	20850,72
1087,17	19329,13
1087,58	19505,11
1088,00	19565,17
1088,42	21403,12
1088,84	19830,39
1089,25	18751,13
1089,67	19455,41
1090,09	19545,49
1090,51	18893,73
1090,92	19795,15
1091,34	19458,51
1091,76	19956,85
1092,18	19566,20
1092,59	19908,13
1093,01	19565,17
1093,43	19868,74
1093,84	19112,91
1094,26	19944,41
1094,68	20425,82
1095,10	18716,01
1095,51	19707,07
1095,93	19257,73
1096,35	20669,89
1096,76	20553,54
1097,18	20454,89
1097,60	19925,75
1098,01	19468,87
1098,43	18980,56
1098,85	19432,63
1099,26	19236,00
1099,68	19879,10
1100,10	18664,36
1100,51	19236,00
1100,93	19631,45
1101,35	19791,01
1101,76	20047,07
1102,18	29193,65
1102,60	21372,93
1103,01	17600,24
1103,43	19722,62
1103,84	19410,89
1104,26	18998,13
1104,68	19491,64
1105,09	17616,72
1105,51	18189,62
1105,92	20745,74
1106,34	18214,37
1106,76	20194,37
1107,17	19976,55
1107,59	20001,44
1108,00	17967,96
1108,42	19239,11
1108,83	17918,50
1109,25	18841,02
1109,67	18127,74
1110,08	18174,15
1110,50	17645,54
1110,91	18708,78
1111,33	18268,01
1111,74	17990,64
1112,16	19192,55
1112,57	19594,16
1112,99	18569,36
1113,41	18842,05
1113,82	18431,03
1114,24	19466,80
1114,65	18716,01
1115,07	18010,22
1115,48	17423,23
1115,90	1848,77
1116,31	2209,95
1116,73	2178,02
1117,14	2180,02
>>>>>End Processed Spectral Data<<<<<
