SpectraSuite Data File
++++++++++++++++++++++++++++++++++++
Date: Wed Jul 27 14:24:43 EEST 2016
User: OO Maya
Dark Spectrum Present: No
Reference Spectrum Present: No
Number of Sampled Component Spectra: 1
Spectrometers: MAYP11278
Integration Time (usec): 15000000 (MAYP11278)
Spectra Averaged: 1 (MAYP11278)
Boxcar Smoothing: 0 (MAYP11278)
Correct for Electrical Dark: No (MAYP11278)
Strobe/Lamp Enabled: No (MAYP11278)
Correct for Detector Non-linearity: Yes (MAYP11278)
Correct for Stray Light: No (MAYP11278)
Number of Pixels in Processed Spectrum: 2068
>>>>>Begin Processed Spectral Data<<<<<
187,82	2335,66
188,30	2263,83
188,78	2225,91
189,26	2221,92
189,73	17744,40
190,21	19519,60
190,69	20162,21
191,17	20713,53
191,64	21695,80
192,12	20870,47
192,60	20346,92
193,07	19658,38
193,55	20876,70
194,03	20490,19
194,51	21202,24
194,98	20388,44
195,46	21929,28
195,94	20494,35
196,42	20705,21
196,89	23886,24
197,37	20733,27
197,85	19885,32
198,32	20490,19
198,80	19869,77
199,28	21227,22
199,76	21671,84
200,23	20395,71
200,71	20664,69
201,19	21747,90
201,66	21769,79
202,14	21699,97
202,62	19858,37
203,09	21309,44
203,57	19907,09
204,05	21944,92
204,53	22436,36
205,00	20185,03
205,48	20306,44
205,96	22635,83
206,43	20551,47
206,91	21201,20
207,39	24023,56
207,86	21201,20
208,34	21752,07
208,82	20758,21
209,29	22090,93
209,77	21548,91
210,25	21030,60
210,72	20837,20
211,20	21237,62
211,68	20715,61
212,15	20342,77
212,63	23092,62
213,11	21756,24
213,58	20492,27
214,06	23001,64
214,53	21338,58
215,01	22787,34
215,49	21513,50
215,96	21739,57
216,44	21819,82
216,92	21892,79
217,39	20466,31
217,87	20850,72
218,35	22530,34
218,82	19738,16
219,30	20311,63
219,77	20359,38
220,25	21244,91
220,73	23857,94
221,20	20368,72
221,68	22143,09
222,15	20312,67
222,63	22144,13
223,11	20603,40
223,58	22098,23
224,06	20956,76
224,53	20630,41
225,01	20232,76
225,49	20998,36
225,96	20398,82
226,44	21289,66
226,91	22303,78
227,39	20949,48
227,87	22390,42
228,34	22020,00
228,82	21777,08
229,29	20923,49
229,77	20940,12
230,24	20690,67
230,72	22290,21
231,20	21942,83
231,67	21256,36
232,15	21423,95
232,62	20202,67
233,10	21562,45
233,57	21657,25
234,05	25361,49
234,53	21772,92
235,00	20780,04
235,48	20373,91
235,95	20130,05
236,43	22330,92
236,90	23879,95
237,38	20818,49
237,85	21396,88
238,33	21553,08
238,80	21627,04
239,28	21180,39
239,75	20096,85
240,23	22154,56
240,71	22878,27
241,18	21611,41
241,66	21249,07
242,13	22266,21
242,61	22762,26
243,08	20162,21
243,56	20425,82
244,03	22089,88
244,51	22983,86
244,98	21005,64
245,46	23042,42
245,93	68393,61
246,41	19992,11
246,88	21658,29
247,36	21454,14
247,83	21617,66
248,31	21816,69
248,78	19772,35
249,26	21520,79
249,73	22226,56
250,21	21628,08
250,68	23030,92
251,16	21499,96
251,63	23810,79
252,10	23033,01
252,58	20784,19
253,05	22976,54
253,53	21496,84
254,00	21194,96
254,48	21633,29
254,95	21826,07
255,43	22438,45
255,90	20842,40
256,38	21753,11
256,85	22273,52
257,33	22737,18
257,80	25311,00
258,27	21735,40
258,75	20923,49
259,22	22021,04
259,70	22264,12
260,17	23542,63
260,65	21587,45
261,12	21062,84
261,59	22947,27
262,07	20954,68
262,54	21992,89
263,02	21514,54
263,49	20340,69
263,97	22372,67
264,44	22794,65
264,91	21147,10
265,39	21808,35
265,86	22199,43
266,34	22412,35
266,81	21275,09
267,28	21484,34
267,76	21861,51
268,23	22251,60
268,71	19883,25
269,18	20851,75
269,65	21106,53
270,13	22134,74
270,60	23248,49
271,08	21484,34
271,55	21693,72
272,02	20431,01
272,50	20701,06
272,97	20053,29
273,44	21794,80
273,92	26205,96
274,39	22823,92
274,87	23020,46
275,34	21300,07
275,81	21689,55
276,29	22495,88
276,76	22790,47
277,23	20602,36
277,71	21690,59
278,18	20798,74
278,65	26948,62
279,13	21583,29
279,60	21285,50
280,07	26688,96
280,55	23079,02
281,02	26008,90
281,50	21437,48
281,97	23399,20
282,44	21862,56
282,91	21980,37
283,39	22644,19
283,86	21057,64
284,33	21127,33
284,81	23087,39
285,28	22099,27
285,75	22631,65
286,23	22382,07
286,70	20665,73
287,17	22751,81
287,65	24311,98
288,12	21992,89
288,59	23075,89
289,07	20223,42
289,54	24135,76
290,01	21361,48
290,48	22755,99
290,96	21599,95
291,43	22783,16
291,90	25166,93
292,38	21695,80
292,85	23609,65
293,32	21791,68
293,79	22927,40
294,27	22988,04
294,74	21855,26
295,21	22139,96
295,69	22690,16
296,16	24502,98
296,63	24366,55
297,10	23340,58
297,58	22833,32
298,05	22799,88
298,52	22036,69
298,99	24521,88
299,47	22176,47
299,94	22994,32
300,41	21878,19
300,88	23474,57
301,36	23537,39
301,83	23374,08
302,30	21324,01
302,77	23358,38
303,25	23130,28
303,72	21561,41
304,19	21955,35
304,66	21580,16
305,13	22504,23
305,61	22785,25
306,08	22509,45
306,55	23198,27
307,02	22011,66
307,49	21927,19
307,97	22392,51
308,44	21938,66
308,91	23436,88
309,38	23627,46
309,86	22683,89
310,33	22190,04
310,80	22646,28
311,27	21465,60
311,74	23352,10
312,21	21923,02
312,69	24299,39
313,16	21463,52
313,63	21714,56
314,10	22348,67
314,57	21610,37
315,05	21356,28
315,52	23209,78
315,99	22948,31
316,46	22335,10
316,93	22948,31
317,40	22415,48
317,88	25609,81
318,35	22115,96
318,82	21967,86
319,29	20560,81
319,76	22444,71
320,23	24360,25
320,70	23165,84
321,18	21681,21
321,65	20126,93
322,12	20845,52
322,59	24107,44
323,06	21806,27
323,53	25182,70
324,00	20782,11
324,48	22295,43
324,95	21634,33
325,42	21356,28
325,89	21488,51
326,36	21479,14
326,83	22624,34
327,30	22570,03
327,77	22488,57
328,24	22290,21
328,72	21730,19
329,19	21342,74
329,66	21558,29
330,13	21219,93
330,60	22754,94
331,07	22444,71
331,54	23737,45
332,01	21062,84
332,48	24222,81
332,95	22705,83
333,43	22377,89
333,90	23359,42
334,37	22163,95
334,84	22842,73
335,31	26738,56
335,78	20803,94
336,25	21811,48
336,72	21577,04
337,19	22227,60
337,66	21412,49
338,13	21683,30
338,60	23623,27
339,07	23068,57
339,54	20837,20
340,01	21057,64
340,49	20854,87
340,96	22334,05
341,43	23399,20
341,90	21466,64
342,37	22388,33
342,84	22722,55
343,31	22263,08
343,78	21447,90
344,25	21864,64
344,72	21275,09
345,19	21844,84
345,66	22707,92
346,13	21427,07
346,60	21025,40
347,07	24029,85
347,54	21387,51
348,01	23118,77
348,48	22251,60
348,95	20377,02
349,42	22093,01
349,89	22765,39
350,36	21930,32
350,83	20866,31
351,30	22241,17
351,77	24132,61
352,24	22439,49
352,71	21735,40
353,18	22085,71
353,65	22647,32
354,12	22388,33
354,59	22746,58
355,06	22256,82
355,53	23873,67
356,00	21244,91
356,47	23916,64
356,94	21200,16
357,41	25678,23
357,88	22844,82
358,35	20466,31
358,82	21033,72
359,28	21479,14
359,75	21390,63
360,22	22954,59
360,69	23973,24
361,16	21459,35
361,63	21863,60
362,10	21900,09
362,57	21783,34
363,04	21806,27
363,51	24653,12
363,98	22821,83
364,45	21136,70
364,92	22823,92
365,39	21571,83
365,86	20754,05
366,32	22352,84
366,79	21915,73
367,26	37258,66
367,73	20227,57
368,20	20902,69
368,67	23027,78
369,14	20869,43
369,61	23180,49
370,08	22282,91
370,55	21565,58
371,02	30609,18
371,48	22454,11
371,95	21239,70
372,42	20503,69
372,89	21108,61
373,36	21994,97
373,83	20658,46
374,30	21183,51
374,77	22448,89
375,23	20198,52
375,70	23831,75
376,17	21615,58
376,64	20733,27
377,11	21008,76
377,58	22692,25
378,05	22208,82
378,51	21928,24
378,98	22064,85
379,45	21940,75
379,92	22800,92
380,39	25385,68
380,86	22183,78
381,33	23919,78
381,79	23677,73
382,26	20554,58
382,73	22490,66
383,20	21712,47
383,67	23330,12
384,14	22079,45
384,60	28819,24
385,07	22190,04
385,54	21548,91
386,01	21776,04
386,48	24438,96
386,94	21250,11
387,41	20934,92
387,88	23244,31
388,35	22590,92
388,82	23646,31
389,28	21361,48
389,75	23144,92
390,22	22565,85
390,69	22927,40
391,16	22483,35
391,62	22437,40
392,09	22677,62
392,56	22138,91
393,03	22175,43
393,50	25635,07
393,96	22398,77
394,43	23922,93
394,90	21632,25
395,37	23780,40
395,83	28922,09
396,30	21343,79
396,77	23533,20
397,24	24149,39
397,70	21879,24
398,17	23232,80
398,64	22781,07
399,11	22495,88
399,57	24955,65
400,04	22436,36
400,51	23784,59
400,98	23958,56
401,44	25073,37
401,91	25704,54
402,38	26994,02
402,84	29975,28
403,31	40141,81
403,78	47384,73
404,25	66768,30
404,71	58447,46
405,18	36733,30
405,65	30142,18
406,12	32397,43
406,58	33307,46
407,05	37057,94
407,52	36944,67
407,98	37138,87
408,45	38284,10
408,92	37917,54
409,38	42514,91
409,85	42562,92
410,32	47345,13
410,78	48097,82
411,25	53512,08
411,72	55294,15
412,18	57529,05
412,65	64306,07
413,12	67980,63
413,59	68393,61
414,05	68393,61
414,52	68393,61
414,98	68393,61
415,45	68393,61
415,92	68393,61
416,38	68393,61
416,85	68393,61
417,32	68393,61
417,78	68393,61
418,25	68393,61
418,72	68393,61
419,18	68393,61
419,65	68393,61
420,12	68393,61
420,58	68393,61
421,05	68393,61
421,51	68393,61
421,98	68393,61
422,45	68393,61
422,91	68393,61
423,38	68393,61
423,85	68393,61
424,31	68393,61
424,78	68393,61
425,24	68393,61
425,71	68393,61
426,18	68393,61
426,64	68393,61
427,11	68393,61
427,57	68393,61
428,04	68393,61
428,51	68393,61
428,97	68393,61
429,44	68393,61
429,90	68393,61
430,37	68393,61
430,83	68393,61
431,30	68393,61
431,77	68393,61
432,23	68393,61
432,70	68393,61
433,16	68393,61
433,63	68393,61
434,09	68393,61
434,56	68393,61
435,03	68393,61
435,49	68393,61
435,96	68393,61
436,42	68393,61
436,89	68393,61
437,35	68393,61
437,82	68393,61
438,28	68393,61
438,75	68393,61
439,21	68393,61
439,68	68393,61
440,14	68393,61
440,61	68393,61
441,07	68393,61
441,54	68393,61
442,00	68393,61
442,47	68393,61
442,94	68393,61
443,40	68393,61
443,87	68393,61
444,33	68393,61
444,80	68393,61
445,26	68393,61
445,73	68393,61
446,19	68393,61
446,65	68393,61
447,12	68393,61
447,58	68393,61
448,05	68393,61
448,51	68393,61
448,98	68393,61
449,44	68393,61
449,91	68393,61
450,37	68393,61
450,84	68393,61
451,30	68393,61
451,77	68393,61
452,23	68393,61
452,70	68393,61
453,16	68393,61
453,62	68393,61
454,09	68393,61
454,55	68393,61
455,02	68393,61
455,48	68393,61
455,95	68393,61
456,41	68393,61
456,88	68393,61
457,34	68393,61
457,80	68393,61
458,27	68393,61
458,73	68393,61
459,20	68393,61
459,66	68393,61
460,13	68393,61
460,59	68393,61
461,05	68393,61
461,52	68393,61
461,98	68393,61
462,45	68393,61
462,91	68393,61
463,37	68393,61
463,84	68393,61
464,30	68393,61
464,76	68393,61
465,23	68393,61
465,69	68393,61
466,16	68393,61
466,62	68393,61
467,08	68393,61
467,55	68393,61
468,01	68393,61
468,48	68393,61
468,94	68393,61
469,40	68393,61
469,87	68393,61
470,33	68393,61
470,79	68393,61
471,26	68393,61
471,72	68393,61
472,18	68393,61
472,65	68393,61
473,11	68393,61
473,57	68393,61
474,04	68393,61
474,50	68393,61
474,96	68393,61
475,43	68393,61
475,89	68393,61
476,35	68393,61
476,82	68393,61
477,28	68393,61
477,74	68393,61
478,21	68393,61
478,67	68393,61
479,13	68393,61
479,59	68393,61
480,06	68393,61
480,52	68393,61
480,98	68393,61
481,45	68393,61
481,91	68393,61
482,37	68393,61
482,84	68393,61
483,30	68393,61
483,76	68393,61
484,22	68393,61
484,69	68393,61
485,15	68393,61
485,61	68393,61
486,07	68393,61
486,54	68393,61
487,00	68393,61
487,46	68393,61
487,92	68393,61
488,39	68393,61
488,85	68393,61
489,31	68393,61
489,77	68393,61
490,24	68393,61
490,70	68393,61
491,16	68393,61
491,62	68393,61
492,09	68393,61
492,55	68393,61
493,01	68393,61
493,47	68393,61
493,94	68393,61
494,40	68393,61
494,86	68393,61
495,32	68393,61
495,78	68393,61
496,25	68393,61
496,71	68393,61
497,17	68393,61
497,63	68393,61
498,09	68393,61
498,56	68393,61
499,02	68393,61
499,48	68393,61
499,94	68393,61
500,40	68393,61
500,87	68393,61
501,33	68393,61
501,79	68393,61
502,25	68393,61
502,71	68393,61
503,17	68393,61
503,64	68393,61
504,10	68393,61
504,56	68393,61
505,02	68393,61
505,48	68393,61
505,94	68393,61
506,40	68393,61
506,87	68393,61
507,33	68393,61
507,79	68393,61
508,25	68393,61
508,71	68393,61
509,17	68393,61
509,63	68393,61
510,10	68393,61
510,56	68393,61
511,02	68393,61
511,48	68393,61
511,94	68393,61
512,40	68393,61
512,86	68393,61
513,32	68393,61
513,78	68393,61
514,25	68393,61
514,71	68393,61
515,17	68393,61
515,63	68393,61
516,09	68393,61
516,55	68393,61
517,01	68393,61
517,47	68393,61
517,93	68393,61
518,39	68393,61
518,85	68393,61
519,32	68393,61
519,78	68393,61
520,24	68393,61
520,70	68393,61
521,16	68393,61
521,62	68393,61
522,08	68393,61
522,54	68393,61
523,00	68393,61
523,46	68393,61
523,92	68393,61
524,38	68393,61
524,84	68393,61
525,30	68393,61
525,76	68393,61
526,22	68393,61
526,68	68393,61
527,14	68393,61
527,60	68393,61
528,06	68393,61
528,52	68393,61
528,98	68393,61
529,44	68393,61
529,90	68393,61
530,36	68393,61
530,82	68393,61
531,28	68393,61
531,74	68393,61
532,20	68393,61
532,66	68393,61
533,12	68393,61
533,58	68393,61
534,04	68393,61
534,50	68393,61
534,96	68393,61
535,42	68393,61
535,88	68393,61
536,34	68393,61
536,80	68393,61
537,26	68393,61
537,72	68393,61
538,18	68393,61
538,64	68393,61
539,10	68393,61
539,56	68393,61
540,02	68393,61
540,48	68393,61
540,94	68393,61
541,40	68393,61
541,86	68393,61
542,32	68393,61
542,78	68393,61
543,24	68393,61
543,69	68393,61
544,15	68393,61
544,61	68393,61
545,07	68393,61
545,53	68393,61
545,99	68393,61
546,45	68393,61
546,91	68393,61
547,37	68393,61
547,83	68393,61
548,29	68393,61
548,74	68393,61
549,20	68393,61
549,66	68393,61
550,12	68393,61
550,58	68393,61
551,04	68393,61
551,50	68393,61
551,96	68393,61
552,42	68393,61
552,87	68393,61
553,33	68393,61
553,79	68393,61
554,25	68393,61
554,71	68393,61
555,17	68393,61
555,63	68393,61
556,08	68393,61
556,54	68393,61
557,00	68393,61
557,46	68393,61
557,92	68393,61
558,38	68393,61
558,83	68393,61
559,29	68393,61
559,75	68393,61
560,21	68393,61
560,67	68393,61
561,13	68393,61
561,58	68393,61
562,04	68393,61
562,50	68393,61
562,96	68393,61
563,42	68393,61
563,87	68393,61
564,33	68393,61
564,79	68393,61
565,25	68393,61
565,71	68393,61
566,16	68393,61
566,62	68393,61
567,08	68393,61
567,54	68393,61
568,00	68393,61
568,45	68393,61
568,91	68393,61
569,37	68393,61
569,83	68393,61
570,28	68393,61
570,74	68393,61
571,20	68393,61
571,66	68393,61
572,11	68393,61
572,57	68393,61
573,03	68393,61
573,49	68393,61
573,94	68393,61
574,40	68393,61
574,86	68393,61
575,32	68393,61
575,77	68393,61
576,23	68393,61
576,69	68393,61
577,15	68393,61
577,60	68393,61
578,06	68393,61
578,52	68393,61
578,97	68393,61
579,43	68393,61
579,89	68393,61
580,34	68393,61
580,80	68393,61
581,26	68393,61
581,72	68393,61
582,17	68393,61
582,63	68393,61
583,09	68393,61
583,54	68393,61
584,00	68393,61
584,46	68393,61
584,91	68393,61
585,37	68393,61
585,83	68393,61
586,28	68393,61
586,74	68393,61
587,20	68393,61
587,65	68393,61
588,11	68393,61
588,57	68393,61
589,02	68393,61
589,48	68393,61
589,94	68393,61
590,39	68393,61
590,85	68393,61
591,30	68393,61
591,76	68393,61
592,22	68393,61
592,67	68393,61
593,13	68393,61
593,59	68393,61
594,04	68393,61
594,50	68393,61
594,95	68393,61
595,41	68393,61
595,87	68393,61
596,32	68393,61
596,78	68393,61
597,23	68393,61
597,69	68393,61
598,15	68393,61
598,60	68393,61
599,06	68393,61
599,51	68393,61
599,97	68393,61
600,43	68393,61
600,88	68393,61
601,34	68393,61
601,79	68393,61
602,25	68393,61
602,70	68393,61
603,16	68393,61
603,61	68393,61
604,07	68393,61
604,53	68393,61
604,98	68393,61
605,44	68393,61
605,89	68393,61
606,35	68393,61
606,80	68393,61
607,26	68393,61
607,71	68393,61
608,17	68393,61
608,62	68393,61
609,08	68393,61
609,53	68393,61
609,99	68393,61
610,44	68393,61
610,90	68393,61
611,35	68393,61
611,81	68393,61
612,26	68393,61
612,72	68393,61
613,17	68393,61
613,63	68393,61
614,08	68393,61
614,54	68393,61
614,99	68393,61
615,45	68393,61
615,90	68393,61
616,36	68393,61
616,81	68393,61
617,27	68393,61
617,72	68393,61
618,18	68393,61
618,63	68393,61
619,09	68393,61
619,54	68393,61
619,99	68393,61
620,45	68393,61
620,90	68393,61
621,36	68393,61
621,81	68393,61
622,27	68393,61
622,72	68393,61
623,18	68393,61
623,63	68393,61
624,08	68393,61
624,54	68393,61
624,99	68393,61
625,45	68393,61
625,90	68393,61
626,35	68393,61
626,81	68393,61
627,26	68393,61
627,72	68393,61
628,17	68393,61
628,62	68393,61
629,08	68393,61
629,53	68393,61
629,99	68393,61
630,44	68393,61
630,89	68393,61
631,35	68393,61
631,80	68393,61
632,26	68393,61
632,71	68393,61
633,16	68393,61
633,62	68393,61
634,07	68393,61
634,52	68393,61
634,98	68393,61
635,43	68393,61
635,88	68393,61
636,34	68393,61
636,79	68393,61
637,24	68393,61
637,70	68393,61
638,15	68393,61
638,60	68393,61
639,06	68393,61
639,51	68393,61
639,96	68393,61
640,42	68393,61
640,87	68393,61
641,32	68393,61
641,78	68393,61
642,23	68393,61
642,68	68393,61
643,14	68393,61
643,59	68393,61
644,04	68393,61
644,49	68393,61
644,95	68393,61
645,40	68393,61
645,85	68393,61
646,31	68393,61
646,76	68393,61
647,21	68393,61
647,66	68393,61
648,12	68393,61
648,57	68393,61
649,02	68393,61
649,47	68393,61
649,93	68393,61
650,38	68393,61
650,83	68393,61
651,28	68393,61
651,74	68393,61
652,19	68393,61
652,64	68393,61
653,09	68393,61
653,55	68393,61
654,00	68393,61
654,45	68393,61
654,90	68393,61
655,35	68393,61
655,81	68393,61
656,26	68393,61
656,71	68393,61
657,16	68393,61
657,62	68393,61
658,07	68393,61
658,52	68393,61
658,97	68393,61
659,42	68393,61
659,88	68393,61
660,33	68393,61
660,78	68393,61
661,23	68393,61
661,68	68393,61
662,13	68393,61
662,59	68393,61
663,04	68393,61
663,49	68393,61
663,94	68393,61
664,39	68393,61
664,84	68393,61
665,30	68393,61
665,75	68393,61
666,20	68393,61
666,65	68393,61
667,10	68393,61
667,55	68393,61
668,00	68393,61
668,46	68393,61
668,91	68393,61
669,36	68393,61
669,81	68393,61
670,26	68393,61
670,71	68393,61
671,16	68393,61
671,61	68393,61
672,06	68393,61
672,52	68393,61
672,97	68393,61
673,42	68393,61
673,87	68393,61
674,32	68393,61
674,77	68393,61
675,22	68393,61
675,67	68393,61
676,12	68393,61
676,57	68393,61
677,02	68393,61
677,47	68393,61
677,93	68393,61
678,38	68393,61
678,83	68393,61
679,28	68393,61
679,73	68393,61
680,18	68393,61
680,63	68393,61
681,08	68393,61
681,53	68393,61
681,98	68393,61
682,43	68393,61
682,88	68393,61
683,33	68393,61
683,78	68393,61
684,23	68393,61
684,68	68393,61
685,13	68393,61
685,58	68393,61
686,03	68393,61
686,48	68393,61
686,93	68393,61
687,38	68393,61
687,83	68393,61
688,28	68393,61
688,73	68393,61
689,18	68393,61
689,63	68393,61
690,08	68393,61
690,53	68393,61
690,98	68393,61
691,43	68393,61
691,88	68393,61
692,33	68393,61
692,78	68393,61
693,23	68393,61
693,68	68393,61
694,13	68393,61
694,58	68393,61
695,03	68393,61
695,48	68393,61
695,93	68393,61
696,38	68393,61
696,83	68393,61
697,28	68393,61
697,72	68393,61
698,17	68393,61
698,62	68393,61
699,07	68393,61
699,52	68393,61
699,97	68393,61
700,42	68393,61
700,87	68393,61
701,32	68393,61
701,77	68393,61
702,22	68393,61
702,67	68393,61
703,11	68393,61
703,56	68393,61
704,01	68393,61
704,46	68393,61
704,91	68393,61
705,36	68393,61
705,81	68393,61
706,26	68393,61
706,70	68393,61
707,15	68393,61
707,60	68393,61
708,05	68393,61
708,50	68393,61
708,95	68393,61
709,40	68393,61
709,84	68393,61
710,29	68393,61
710,74	68393,61
711,19	68393,61
711,64	68393,61
712,09	68393,61
712,53	68393,61
712,98	68393,61
713,43	68393,61
713,88	68393,61
714,33	68393,61
714,78	68393,61
715,22	68393,61
715,67	68393,61
716,12	68393,61
716,57	68393,61
717,02	68393,61
717,46	68393,61
717,91	68393,61
718,36	68393,61
718,81	68393,61
719,26	68393,61
719,70	68393,61
720,15	68393,61
720,60	68393,61
721,05	68393,61
721,49	68393,61
721,94	68393,61
722,39	68393,61
722,84	68393,61
723,28	68393,61
723,73	68393,61
724,18	68393,61
724,63	68393,61
725,07	68393,61
725,52	68393,61
725,97	68393,61
726,42	68393,61
726,86	68393,61
727,31	68393,61
727,76	68393,61
728,21	68393,61
728,65	68393,61
729,10	68393,61
729,55	68393,61
729,99	68393,61
730,44	68393,61
730,89	68393,61
731,33	68393,61
731,78	68393,61
732,23	68393,61
732,68	68393,61
733,12	68393,61
733,57	68393,61
734,02	68393,61
734,46	68393,61
734,91	68393,61
735,36	68393,61
735,80	68393,61
736,25	68393,61
736,70	68393,61
737,14	68393,61
737,59	68393,61
738,04	68393,61
738,48	68393,61
738,93	68393,61
739,37	68393,61
739,82	68393,61
740,27	68393,61
740,71	68393,61
741,16	68393,61
741,61	68393,61
742,05	68393,61
742,50	68393,61
742,94	68393,61
743,39	68393,61
743,84	68393,61
744,28	68393,61
744,73	68393,61
745,18	68393,61
745,62	68393,61
746,07	68393,61
746,51	68393,61
746,96	68393,61
747,40	68393,61
747,85	68393,61
748,30	68393,61
748,74	68393,61
749,19	68393,61
749,63	68393,61
750,08	68393,61
750,52	68393,61
750,97	68393,61
751,42	68393,61
751,86	68393,61
752,31	68393,61
752,75	68393,61
753,20	68393,61
753,64	68393,61
754,09	68393,61
754,53	68393,61
754,98	68393,61
755,42	68393,61
755,87	68393,61
756,31	68393,61
756,76	68393,61
757,20	68393,61
757,65	68393,61
758,09	68393,61
758,54	68393,61
758,98	68393,61
759,43	68393,61
759,87	68393,61
760,32	68393,61
760,76	68393,61
761,21	68393,61
761,65	68393,61
762,10	68393,61
762,54	68393,61
762,99	68393,61
763,43	68393,61
763,88	68393,61
764,32	68393,61
764,77	68393,61
765,21	68393,61
765,66	68393,61
766,10	68393,61
766,54	68393,61
766,99	68393,61
767,43	68393,61
767,88	68393,61
768,32	68393,61
768,77	68393,61
769,21	68393,61
769,66	68393,61
770,10	68393,61
770,54	68393,61
770,99	68393,61
771,43	68393,61
771,88	68393,61
772,32	68393,61
772,76	68393,61
773,21	68393,61
773,65	68393,61
774,10	68393,61
774,54	68393,61
774,98	68393,61
775,43	68393,61
775,87	68393,61
776,31	68393,61
776,76	68393,61
777,20	68393,61
777,65	68393,61
778,09	68393,61
778,53	68393,61
778,98	68393,61
779,42	68393,61
779,86	68393,61
780,31	68393,61
780,75	68393,61
781,19	68393,61
781,64	68393,61
782,08	68393,61
782,52	68393,61
782,97	68393,61
783,41	68393,61
783,85	68393,61
784,30	68393,61
784,74	68393,61
785,18	68393,61
785,63	68393,61
786,07	68393,61
786,51	68393,61
786,95	68393,61
787,40	68393,61
787,84	68393,61
788,28	68393,61
788,73	68393,61
789,17	68393,61
789,61	68393,61
790,05	68393,61
790,50	68393,61
790,94	68393,61
791,38	68393,61
791,82	68393,61
792,27	68393,61
792,71	68393,61
793,15	68393,61
793,59	68393,61
794,04	68393,61
794,48	68393,61
794,92	68393,61
795,36	68393,61
795,81	68393,61
796,25	68393,61
796,69	68393,61
797,13	68393,61
797,57	68393,61
798,02	68393,61
798,46	68393,61
798,90	68393,61
799,34	68393,61
799,79	68393,61
800,23	68393,61
800,67	68393,61
801,11	68393,61
801,55	68393,61
801,99	68393,61
802,44	68393,61
802,88	68393,61
803,32	68393,61
803,76	68393,61
804,20	68393,61
804,64	68393,61
805,09	68393,61
805,53	68393,61
805,97	68393,61
806,41	68393,61
806,85	68393,61
807,29	68393,61
807,74	68393,61
808,18	68393,61
808,62	68393,61
809,06	68393,61
809,50	68393,61
809,94	68393,61
810,38	68393,61
810,82	68393,61
811,27	68393,61
811,71	68393,61
812,15	68393,61
812,59	68393,61
813,03	68393,61
813,47	68393,61
813,91	68393,61
814,35	68393,61
814,79	68393,61
815,23	68393,61
815,67	68393,61
816,12	68393,61
816,56	68393,61
817,00	68393,61
817,44	68393,61
817,88	68393,61
818,32	68393,61
818,76	68393,61
819,20	68393,61
819,64	68393,61
820,08	68393,61
820,52	68393,61
820,96	68393,61
821,40	68393,61
821,84	68393,61
822,28	68393,61
822,72	68393,61
823,16	68393,61
823,60	68393,61
824,04	68393,61
824,48	68393,61
824,92	68393,61
825,36	68393,61
825,80	68393,61
826,24	68393,61
826,68	68393,61
827,12	68393,61
827,56	68393,61
828,00	68393,61
828,44	67711,80
828,88	68393,61
829,32	67568,23
829,76	65485,83
830,20	67658,98
830,64	64017,82
831,08	66282,12
831,52	63234,04
831,96	62257,07
832,40	59375,64
832,84	60271,94
833,28	60500,16
833,72	62416,69
834,16	61281,84
834,60	60035,01
835,04	59126,11
835,48	60151,21
835,91	58242,97
836,35	57329,35
836,79	55818,90
837,23	56232,00
837,67	54012,99
838,11	53395,99
838,55	54321,57
838,99	54112,53
839,43	57011,07
839,87	59123,88
840,30	56106,83
840,74	59645,45
841,18	56717,31
841,62	56167,75
842,06	54324,89
842,50	56773,84
842,94	54448,78
843,38	50915,84
843,81	50077,17
844,25	48507,46
844,69	47168,07
845,13	48133,05
845,57	47207,66
846,01	48302,61
846,45	46951,47
846,88	46718,45
847,32	47567,34
847,76	46512,98
848,20	46681,09
848,64	46070,37
849,08	46743,73
849,51	47229,65
849,95	45769,61
850,39	44208,88
850,83	45566,62
851,27	43222,45
851,70	43965,93
852,14	45563,33
852,58	42650,22
853,02	41958,72
853,46	43089,16
853,89	40724,23
854,33	43415,87
854,77	40712,27
855,21	41263,81
855,65	42853,27
856,08	43322,98
856,52	40486,18
856,96	40337,32
857,40	39377,91
857,83	37463,79
858,27	39849,78
858,71	36336,70
859,15	37160,45
859,58	37611,75
860,02	37972,67
860,46	38459,38
860,89	39111,26
861,33	37347,18
861,77	37694,93
862,21	37580,42
862,64	36546,81
863,08	36279,61
863,52	37322,35
863,95	34981,29
864,39	35439,11
864,83	35297,21
865,27	33636,19
865,70	34900,74
866,14	33337,43
866,58	35889,84
867,01	34114,15
867,45	35238,09
867,89	34401,59
868,32	34152,75
868,76	34678,47
869,20	34165,62
869,63	35391,81
870,07	36448,75
870,51	31578,71
870,94	32420,93
871,38	32006,57
871,82	31021,26
872,25	32131,48
872,69	32454,05
873,13	31797,40
873,56	33489,46
874,00	33170,47
874,43	31634,17
874,87	31076,65
875,31	33329,94
875,74	30001,85
876,18	32002,30
876,61	30955,22
877,05	30749,70
877,49	30907,29
877,92	30170,89
878,36	30490,00
878,79	29727,69
879,23	31953,20
879,67	28778,95
880,10	28547,90
880,54	29086,49
880,97	29920,01
881,41	30680,50
881,84	29526,96
882,28	29756,37
882,72	29454,76
883,15	29523,77
883,59	28409,11
884,02	30094,34
884,46	29248,83
884,89	29356,03
885,33	29724,50
885,76	27976,07
886,20	27490,59
886,63	30492,12
887,07	27004,58
887,50	27097,52
887,94	27811,01
888,37	27343,67
888,81	31840,08
889,24	26610,89
889,68	29090,74
890,11	27257,03
890,55	28626,31
890,98	28511,87
891,42	26575,02
891,85	26990,85
892,29	27172,51
892,72	26130,08
893,16	26498,02
893,59	27281,33
894,03	26299,77
894,46	27385,95
894,90	25729,81
895,33	25516,14
895,77	26666,81
896,20	27042,60
896,63	25758,24
897,07	25321,51
897,50	25409,88
897,94	26983,46
898,37	27757,06
898,81	25706,65
899,24	25341,50
899,68	25497,20
900,11	27129,20
900,54	26564,47
900,98	25416,19
901,41	27735,91
901,85	28187,77
902,28	24537,62
902,71	24617,41
903,15	27455,71
903,58	24964,06
904,02	25780,35
904,45	24592,22
904,88	24750,79
905,32	24030,90
905,75	26836,72
906,18	25092,29
906,62	26503,29
907,05	25525,61
907,48	24883,15
907,92	26124,81
908,35	27126,03
908,79	24440,01
909,22	23608,60
909,65	25198,47
910,09	25716,13
910,52	26229,15
910,95	26658,37
911,38	25891,98
911,82	28957,09
912,25	29139,54
912,68	26953,90
913,12	25921,47
913,55	24772,84
913,98	23640,02
914,42	23681,92
914,85	24003,64
915,28	23539,49
915,72	25200,58
916,15	23330,12
916,58	24976,67
917,01	23285,12
917,45	24846,38
917,88	22977,59
918,31	23405,48
918,74	23395,01
919,18	24385,43
919,61	24832,72
920,04	23811,84
920,47	26619,33
920,91	25320,46
921,34	23990,01
921,77	23557,29
922,20	24020,42
922,64	24824,32
923,07	25988,89
923,50	24420,07
923,93	21906,34
924,37	23720,68
924,80	22253,69
925,23	24303,59
925,66	25961,50
926,09	22809,28
926,53	23591,85
926,96	21583,29
927,39	25893,03
927,82	22968,18
928,25	21549,95
928,69	24091,72
929,12	22368,50
929,55	23158,52
929,98	24078,08
930,41	21899,04
930,84	23193,04
931,28	20912,05
931,71	25068,11
932,14	23477,71
932,57	25913,04
933,00	22242,21
933,43	23766,78
933,86	23652,59
934,30	23041,38
934,73	22512,58
935,16	20849,68
935,59	21795,85
936,02	21176,23
936,45	22456,20
936,88	20806,02
937,31	22740,31
937,75	21253,23
938,18	21305,27
938,61	22478,12
939,04	20581,59
939,47	21564,54
939,90	22962,95
940,33	24603,77
940,76	20644,95
941,19	22713,14
941,62	20361,45
942,05	20798,74
942,48	22341,36
942,91	20193,33
943,35	19859,41
943,78	22195,25
944,21	22073,19
944,64	22094,06
945,07	21315,68
945,50	21615,58
945,93	21665,59
946,36	22944,13
946,79	21274,05
947,22	21516,63
947,65	21858,39
948,08	20093,74
948,51	20050,18
948,94	20298,14
949,37	24885,25
949,80	23015,23
950,23	20952,60
950,66	20486,04
951,09	21698,93
951,52	19801,37
951,95	22324,66
952,38	20990,04
952,81	23969,05
953,24	19958,93
953,67	20588,86
954,10	20736,39
954,53	20609,63
954,96	20765,49
955,39	22031,47
955,82	20222,38
956,25	22037,73
956,68	25171,14
957,11	20052,26
957,53	21789,59
957,96	21456,23
958,39	20631,45
958,82	20521,35
959,25	20360,41
959,68	19130,49
960,11	21122,13
960,54	21751,03
960,97	21733,31
961,40	22494,83
961,83	22243,25
962,26	20802,90
962,68	21469,76
963,11	20925,57
963,54	21954,30
963,97	21721,85
964,40	20677,16
964,83	23168,98
965,26	21905,30
965,69	21749,99
966,11	22134,74
966,54	20228,61
966,97	20398,82
967,40	22287,08
967,83	26810,33
968,26	21997,06
968,69	20816,41
969,11	21407,29
969,54	20037,74
969,97	20445,54
970,40	21705,18
970,83	20493,31
971,26	21075,32
971,68	19774,42
972,11	20246,25
972,54	20474,62
972,97	21506,21
973,40	20431,01
973,82	21879,24
974,25	21231,38
974,68	20181,92
975,11	20073,00
975,54	19968,26
975,96	20972,36
976,39	19804,48
976,82	21599,95
977,25	21127,33
977,67	20650,15
978,10	20854,87
978,53	20454,89
978,96	22137,87
979,38	21617,66
979,81	19973,44
980,24	21219,93
980,67	22138,91
981,09	20639,76
981,52	20554,58
981,95	20146,64
982,38	20522,39
982,80	19986,92
983,23	22082,58
983,66	21790,63
984,08	19643,88
984,51	18888,56
984,94	20423,74
985,37	21316,72
985,79	20161,17
986,22	19771,32
986,65	21287,58
987,07	20464,23
987,50	20727,04
987,93	20487,08
988,35	21011,88
988,78	20492,27
989,21	20140,42
989,63	21172,07
990,06	20467,35
990,49	20923,49
990,91	22960,86
991,34	20054,33
991,77	19475,08
992,19	20521,35
992,62	19851,12
993,05	20035,66
993,47	21341,70
993,90	21436,44
994,32	20871,51
994,75	20635,60
995,18	19104,63
995,60	19186,35
996,03	18566,26
996,45	21855,26
996,88	21582,24
997,31	19838,68
997,73	20707,29
998,16	19654,24
998,58	22568,98
999,01	20495,39
999,44	20506,81
999,86	22233,86
1000,29	19648,02
1000,71	20782,11
1001,14	21397,92
1001,56	20554,58
1001,99	20845,52
1002,41	20593,01
1002,84	21453,10
1003,27	19814,84
1003,69	21240,75
1004,12	21132,53
1004,54	22558,54
1004,97	20712,49
1005,39	19392,26
1005,82	21461,43
1006,24	20934,92
1006,67	20452,81
1007,09	19698,79
1007,52	21020,20
1007,94	20882,94
1008,37	26627,77
1008,79	23022,55
1009,22	23012,09
1009,64	22553,31
1010,07	23086,35
1010,49	24609,01
1010,92	24625,81
1011,34	29356,03
1011,77	28081,91
1012,19	26594,01
1012,62	30108,16
1013,04	33149,07
1013,46	31428,36
1013,89	24102,20
1014,31	24654,17
1014,74	22240,12
1015,16	22470,82
1015,59	21069,08
1016,01	22402,95
1016,44	21218,89
1016,86	37231,68
1017,28	21001,48
1017,71	19488,54
1018,13	25048,14
1018,56	22541,83
1018,98	21837,54
1019,40	20465,27
1019,83	20657,42
1020,25	21418,74
1020,68	21296,95
1021,10	21348,99
1021,52	20635,60
1021,95	25906,72
1022,37	22087,80
1022,79	21637,46
1023,22	21430,19
1023,64	21068,04
1024,07	21002,52
1024,49	21509,34
1024,91	19708,11
1025,34	19740,23
1025,76	23459,91
1026,18	21422,91
1026,61	20997,32
1027,03	20513,04
1027,45	20697,94
1027,88	19782,71
1028,30	23448,40
1028,72	20777,96
1029,15	20453,85
1029,57	20779,00
1029,99	22319,44
1030,41	19195,66
1030,84	20710,41
1031,26	21376,06
1031,68	19865,63
1032,11	21686,42
1032,53	19471,97
1032,95	19533,06
1033,37	20928,69
1033,80	21398,96
1034,22	19757,84
1034,64	22904,40
1035,06	19666,67
1035,49	19666,67
1035,91	20564,97
1036,33	18849,29
1036,75	21233,46
1037,18	21382,30
1037,60	21276,13
1038,02	21746,86
1038,44	22264,12
1038,87	19989,00
1039,29	20120,71
1039,71	20690,67
1040,13	19805,51
1040,55	22087,80
1040,98	21968,90
1041,40	21370,85
1041,82	21498,92
1042,24	20191,26
1042,66	21328,17
1043,09	19442,99
1043,51	20181,92
1043,93	19851,12
1044,35	19099,46
1044,77	20074,04
1045,20	20956,76
1045,62	19519,60
1046,04	20875,66
1046,46	21289,66
1046,88	19306,36
1047,30	21640,58
1047,72	21179,35
1048,15	21403,12
1048,57	19957,89
1048,99	20133,16
1049,41	20908,93
1049,83	21587,45
1050,25	23058,11
1050,67	21920,94
1051,09	20429,97
1051,52	20845,52
1051,94	18126,71
1052,36	20380,14
1052,78	18440,32
1053,20	19873,92
1053,62	19548,60
1054,04	20723,92
1054,46	21026,44
1054,88	22961,90
1055,30	21682,26
1055,72	21561,41
1056,14	20811,22
1056,57	25568,76
1056,99	19485,43
1057,41	20847,60
1057,83	21127,33
1058,25	19750,59
1058,67	19885,32
1059,09	19783,75
1059,51	21469,76
1059,93	20392,59
1060,35	19840,75
1060,77	21269,88
1061,19	21812,52
1061,61	20607,56
1062,03	20051,22
1062,45	19497,86
1062,87	21106,53
1063,29	21419,78
1063,71	19782,71
1064,13	19505,11
1064,55	18811,06
1064,97	21555,16
1065,39	20295,02
1065,81	20327,20
1066,23	20498,50
1066,65	19851,12
1067,07	22698,52
1067,49	20446,58
1067,91	19756,81
1068,33	18951,61
1068,75	21510,38
1069,17	21687,47
1069,59	21553,08
1070,00	19911,24
1070,42	21133,57
1070,84	19753,70
1071,26	19164,62
1071,68	18897,86
1072,10	21151,26
1072,52	19859,41
1072,94	19083,95
1073,36	19585,88
1073,78	19712,25
1074,20	20487,08
1074,62	19471,97
1075,03	19411,93
1075,45	20125,90
1075,87	21258,44
1076,29	19685,32
1076,71	21196,00
1077,13	22242,21
1077,55	18253,56
1077,97	20426,86
1078,38	19627,31
1078,80	19924,72
1079,22	20621,06
1079,64	20077,15
1080,06	19922,64
1080,48	20728,07
1080,89	20189,18
1081,31	19823,13
1081,73	20153,91
1082,15	20217,19
1082,57	21442,69
1082,99	20228,61
1083,40	19726,76
1083,82	21780,21
1084,24	19140,83
1084,66	19775,46
1085,08	20487,08
1085,49	18546,64
1085,91	21005,64
1086,33	39333,46
1086,75	20804,98
1087,17	19248,42
1087,58	19488,54
1088,00	19729,87
1088,42	21704,14
1088,84	19952,71
1089,25	18870,99
1089,67	19650,10
1090,09	19811,73
1090,51	19273,25
1090,92	20011,81
1091,34	19457,48
1091,76	20081,30
1092,18	19881,18
1092,59	20059,52
1093,01	19721,58
1093,43	19957,89
1093,84	19222,55
1094,26	19955,82
1094,68	20618,98
1095,10	18915,43
1095,51	19768,21
1095,93	19419,18
1096,35	20737,43
1096,76	20657,42
1097,18	20466,31
1097,60	19992,11
1098,01	19598,31
1098,43	19164,62
1098,85	19760,95
1099,26	19514,42
1099,68	19872,88
1100,10	18776,96
1100,51	19449,20
1100,93	19667,71
1101,35	19758,88
1101,76	20173,62
1102,18	29397,43
1102,60	21753,11
1103,01	17794,87
1103,43	19909,16
1103,84	19548,60
1104,26	19127,39
1104,68	19917,46
1105,09	17617,75
1105,51	18299,99
1105,92	20865,27
1106,34	18458,90
1106,76	20333,43
1107,17	20088,56
1107,59	20118,64
1108,00	18018,46
1108,42	19432,63
1108,83	18120,53
1109,25	19176,00
1109,67	18248,41
1110,08	18416,58
1110,50	17842,25
1110,91	18985,72
1111,33	18200,96
1111,74	18194,77
1112,16	19478,19
1112,57	19722,62
1112,99	18671,59
1113,41	19026,05
1113,82	18626,15
1114,24	19416,07
1114,65	19014,67
1115,07	18229,84
1115,48	17589,95
1115,90	1855,75
1116,31	2211,94
1116,73	2179,02
1117,14	2183,01
>>>>>End Processed Spectral Data<<<<<
