SpectraSuite Data File
++++++++++++++++++++++++++++++++++++
Date: Wed Jul 27 14:15:13 EEST 2016
User: OO Maya
Dark Spectrum Present: No
Reference Spectrum Present: No
Number of Sampled Component Spectra: 1
Spectrometers: MAYP11278
Integration Time (usec): 15000000 (MAYP11278)
Spectra Averaged: 1 (MAYP11278)
Boxcar Smoothing: 0 (MAYP11278)
Correct for Electrical Dark: No (MAYP11278)
Strobe/Lamp Enabled: No (MAYP11278)
Correct for Detector Non-linearity: Yes (MAYP11278)
Correct for Stray Light: No (MAYP11278)
Number of Pixels in Processed Spectrum: 2068
>>>>>Begin Processed Spectral Data<<<<<
187,82	2351,63
188,30	2267,82
188,78	2249,86
189,26	2242,87
189,73	16707,94
190,21	18552,84
190,69	19065,34
191,17	19764,06
191,64	20822,65
192,12	19821,06
192,60	19216,35
193,07	18815,19
193,55	19758,88
194,03	19415,04
194,51	20030,48
194,98	19378,81
195,46	20879,82
195,94	19311,54
196,42	19700,86
196,89	22931,58
197,37	19783,75
197,85	18838,95
198,32	19419,18
198,80	18767,66
199,28	20043,96
199,76	20577,43
200,23	19423,32
200,71	19753,70
201,19	20590,94
201,66	20755,09
202,14	20443,47
202,62	18737,70
203,09	20113,45
203,57	18906,13
204,05	20811,22
204,53	21313,60
205,00	19211,17
205,48	19202,90
205,96	21437,48
206,43	19372,60
206,91	20114,49
207,39	22898,13
207,86	20116,56
208,34	20494,35
208,82	19695,68
209,29	20864,23
209,77	20473,58
210,25	19781,68
210,72	19868,74
211,20	20238,99
211,68	20059,52
212,15	19420,21
212,63	22020,00
213,11	20711,45
213,58	19518,57
214,06	21783,34
214,53	20254,55
215,01	21772,92
215,49	20438,28
215,96	20789,39
216,44	20548,35
216,92	20845,52
217,39	19277,39
217,87	19737,12
218,35	21503,09
218,82	18594,14
219,30	19211,17
219,77	19402,61
220,25	20032,55
220,73	22598,23
221,20	19401,58
221,68	21259,48
222,15	19335,34
222,63	21028,52
223,11	19797,22
223,58	21035,80
224,06	19800,33
224,53	19815,88
225,01	19264,97
225,49	19986,92
225,96	19299,12
226,44	20151,83
226,91	21233,46
227,39	19898,80
227,87	21436,44
228,34	20974,44
228,82	20807,06
229,29	19803,44
229,77	20000,40
230,24	19732,98
230,72	20993,16
231,20	20857,99
231,67	20369,76
232,15	20353,15
232,62	19310,50
233,10	20437,24
233,57	20418,55
234,05	24239,60
234,53	20787,31
235,00	19880,14
235,48	19462,66
235,95	19106,70
236,43	21226,18
236,90	22600,32
237,38	19724,69
237,85	20497,46
238,33	20306,44
238,80	20544,20
239,28	20134,20
239,75	18993,99
240,23	20934,92
240,71	21768,75
241,18	20558,74
241,66	20133,16
242,13	21303,19
242,61	21581,20
243,08	19149,11
243,56	19533,06
244,03	21050,36
244,51	21745,82
244,98	20056,40
245,46	21879,24
245,93	59885,37
246,41	19249,45
246,88	20625,22
247,36	20343,81
247,83	20434,12
248,31	20533,81
248,78	18897,86
249,26	20518,23
249,73	21246,99
250,21	20620,02
250,68	21993,93
251,16	20463,20
251,63	22771,66
252,10	22008,53
252,58	19786,86
253,05	21838,58
253,53	20346,92
254,00	20332,39
254,48	20512,00
254,95	20702,10
255,43	21171,03
255,90	19744,37
256,38	20735,35
256,85	21275,09
257,33	21514,54
257,80	24156,73
258,27	20757,17
258,75	20000,40
259,22	20780,04
259,70	21258,44
260,17	22502,14
260,65	20502,65
261,12	20248,32
261,59	21711,43
262,07	19874,96
262,54	20830,96
263,02	20389,48
263,49	19273,25
263,97	21473,93
264,44	21801,06
264,91	20193,33
265,39	20722,88
265,86	21208,49
266,34	21360,44
266,81	20246,25
267,28	20474,62
267,76	20786,27
268,23	21101,32
268,71	19097,40
269,18	19690,50
269,65	19946,49
270,13	21304,23
270,60	22218,21
271,08	20527,58
271,55	20663,65
272,02	19431,60
272,50	19673,92
272,97	18964,01
273,44	20789,39
273,92	24984,03
274,39	21781,25
274,87	21945,96
275,34	20407,13
275,81	20566,01
276,29	21433,32
276,76	21957,43
277,23	19712,25
277,71	20702,10
278,18	19916,42
278,65	25704,54
279,13	20676,12
279,60	20296,06
280,07	25592,97
280,55	22152,48
281,02	24862,14
281,50	20458,00
281,97	22178,56
282,44	20837,20
282,91	21016,04
283,39	21562,45
283,86	20213,04
284,33	20059,52
284,81	22049,20
285,28	21220,97
285,75	21586,41
286,23	21488,51
286,70	19874,96
287,17	21803,14
287,65	23460,96
288,12	21180,39
288,59	22082,58
289,07	19532,03
289,54	23192,00
290,01	20605,48
290,48	22145,17
290,96	20992,12
291,43	22223,43
291,90	24715,08
292,38	21453,10
292,85	23679,83
293,32	22434,27
293,79	23874,71
294,27	24403,27
294,74	24020,42
295,21	25003,99
295,69	25990,99
296,16	28767,29
296,63	29506,78
297,10	28871,19
297,58	29265,81
298,05	29796,75
298,52	29911,51
298,99	32927,62
299,47	31553,12
299,94	32944,74
300,41	32500,00
300,88	34659,15
301,36	35867,24
301,83	36832,50
302,30	35021,04
302,77	36943,59
303,25	37519,94
303,72	36240,83
304,19	37210,09
304,66	37508,06
305,13	38727,82
305,61	39405,01
306,08	39713,05
306,55	40618,78
307,02	39962,66
307,49	40172,22
307,97	41049,43
308,44	40836,23
308,91	42352,35
309,38	43014,89
309,86	42484,35
310,33	42519,27
310,80	43216,98
311,27	42955,91
311,74	47054,81
312,21	50206,24
312,69	53801,77
313,16	48260,77
313,63	43990,00
314,10	43600,62
314,57	42749,55
315,05	42600,02
315,52	44401,55
315,99	43926,55
316,46	43351,39
316,93	44023,92
317,40	43736,22
317,88	47000,94
318,35	43654,20
318,82	43254,13
319,29	41940,19
319,76	43729,66
320,23	45600,63
320,70	44053,47
321,18	42637,13
321,65	40915,63
322,12	41276,87
322,59	43532,84
323,06	40628,56
323,53	43234,46
324,00	38883,76
324,48	40099,46
324,95	39485,26
325,42	38862,10
325,89	39252,15
326,36	39414,77
326,83	40880,82
327,30	41052,69
327,77	41134,30
328,24	40659,00
328,72	39895,36
329,19	38615,23
329,66	38059,16
330,13	37179,87
330,60	37903,49
331,07	36538,19
331,54	36947,90
332,01	34632,31
332,48	38026,72
332,95	37451,91
333,43	37744,63
333,90	39485,26
334,37	38569,76
334,84	39187,12
335,31	42640,40
335,78	36971,63
336,25	37579,34
336,72	36063,15
337,19	36003,94
337,66	34532,50
338,13	34493,87
338,60	35999,63
339,07	35090,87
339,54	32528,85
340,01	32584,43
340,49	32010,84
340,96	33586,92
341,43	33988,72
341,90	32020,45
342,37	32384,61
342,84	32792,88
343,31	32099,45
343,78	31225,83
344,25	31021,26
344,72	30235,76
345,19	30578,32
345,66	31143,78
346,13	29701,13
346,60	28992,09
347,07	31484,87
347,54	28927,39
348,01	30565,55
348,48	29287,04
348,95	27463,10
349,42	28713,23
349,89	29495,10
350,36	28284,13
350,83	26966,57
351,30	28266,13
351,77	29689,45
352,24	28048,04
352,71	27114,41
353,18	27176,74
353,65	27557,19
354,12	27138,71
354,59	27508,56
355,06	26818,77
355,53	28215,30
356,00	25726,65
356,47	27723,22
356,94	25164,83
357,41	29674,58
357,88	26661,53
358,35	24498,78
358,82	24732,93
359,28	24939,89
359,75	24891,55
360,22	26290,29
360,69	27157,72
361,16	24751,84
361,63	25060,75
362,10	25204,78
362,57	25436,18
363,04	26551,81
363,51	30647,50
363,98	31859,29
364,45	39006,16
364,92	44580,06
365,39	32395,29
365,86	27180,96
366,32	26672,08
366,79	24924,13
367,26	45982,54
367,73	22406,08
368,20	22847,96
368,67	24804,36
369,14	22669,26
369,61	24872,64
370,08	24045,58
370,55	23326,98
371,02	31958,54
371,48	23990,01
371,95	22777,93
372,42	21881,32
372,89	22452,02
373,36	23252,68
373,83	21949,09
374,30	22200,47
374,77	23580,33
375,23	21527,04
375,70	24940,94
376,17	22561,67
376,64	21773,96
377,11	21938,66
377,58	23677,73
378,05	22998,50
378,51	22749,72
378,98	22882,45
379,45	22770,62
379,92	23579,28
380,39	25879,34
380,86	22961,90
381,33	24491,44
381,79	24432,66
382,26	21434,36
382,73	23028,83
383,20	22318,40
383,67	23721,73
384,14	22519,90
384,60	28978,30
385,07	22919,04
385,54	22098,23
386,01	22210,90
386,48	24696,17
386,94	21784,38
387,41	21568,70
387,88	23744,78
388,35	23097,85
388,82	24172,47
389,28	21969,95
389,75	23543,68
390,22	23340,58
390,69	23508,07
391,16	23079,02
391,62	23050,79
392,09	23201,41
392,56	22719,41
393,03	22554,36
393,50	25932,00
393,96	23188,86
394,43	24577,52
394,90	22220,30
395,37	24366,55
395,83	29364,52
396,30	22145,17
396,77	24335,07
397,24	24672,02
397,70	22904,40
398,17	24121,08
398,64	23631,65
399,11	23473,52
399,57	26096,35
400,04	23759,45
400,51	25410,93
400,98	25531,93
401,44	26944,40
401,91	28020,52
402,38	30532,56
402,84	37271,61
403,31	53967,65
403,78	68393,61
404,25	68393,61
404,71	68393,61
405,18	46815,17
405,65	35026,41
406,12	36453,06
406,58	37676,56
407,05	41888,97
407,52	42443,99
407,98	42067,73
408,45	42682,97
408,92	42685,15
409,38	47102,09
409,85	47591,55
410,32	52785,84
410,78	53915,67
411,25	59241,94
411,72	61309,94
412,18	64158,36
412,65	68393,61
413,12	68393,61
413,59	68393,61
414,05	68393,61
414,52	68393,61
414,98	68393,61
415,45	68393,61
415,92	68393,61
416,38	68393,61
416,85	68393,61
417,32	68393,61
417,78	68393,61
418,25	68393,61
418,72	68393,61
419,18	68393,61
419,65	68393,61
420,12	68393,61
420,58	68393,61
421,05	68393,61
421,51	68393,61
421,98	68393,61
422,45	68393,61
422,91	68393,61
423,38	68393,61
423,85	68393,61
424,31	68393,61
424,78	68393,61
425,24	68393,61
425,71	68393,61
426,18	68393,61
426,64	68393,61
427,11	68393,61
427,57	68393,61
428,04	68393,61
428,51	68393,61
428,97	68393,61
429,44	68393,61
429,90	68393,61
430,37	68393,61
430,83	68393,61
431,30	68393,61
431,77	68393,61
432,23	68393,61
432,70	68393,61
433,16	68393,61
433,63	68393,61
434,09	68393,61
434,56	68393,61
435,03	68393,61
435,49	68393,61
435,96	68393,61
436,42	68393,61
436,89	68393,61
437,35	68393,61
437,82	68393,61
438,28	68393,61
438,75	68393,61
439,21	68393,61
439,68	68393,61
440,14	68393,61
440,61	68393,61
441,07	68393,61
441,54	68393,61
442,00	68393,61
442,47	68393,61
442,94	68393,61
443,40	68393,61
443,87	68393,61
444,33	68393,61
444,80	68393,61
445,26	68393,61
445,73	68393,61
446,19	68393,61
446,65	68393,61
447,12	68393,61
447,58	68393,61
448,05	68393,61
448,51	68393,61
448,98	68393,61
449,44	68393,61
449,91	68393,61
450,37	68393,61
450,84	68393,61
451,30	68393,61
451,77	68393,61
452,23	68393,61
452,70	68393,61
453,16	68393,61
453,62	68393,61
454,09	68393,61
454,55	68393,61
455,02	68393,61
455,48	68393,61
455,95	68393,61
456,41	68393,61
456,88	68393,61
457,34	68393,61
457,80	68393,61
458,27	68393,61
458,73	68393,61
459,20	68393,61
459,66	68393,61
460,13	68393,61
460,59	68393,61
461,05	68393,61
461,52	68393,61
461,98	68393,61
462,45	68393,61
462,91	68393,61
463,37	68393,61
463,84	68393,61
464,30	68393,61
464,76	68393,61
465,23	68393,61
465,69	68393,61
466,16	68393,61
466,62	68393,61
467,08	68393,61
467,55	68393,61
468,01	68393,61
468,48	68393,61
468,94	68393,61
469,40	68393,61
469,87	68393,61
470,33	68393,61
470,79	68393,61
471,26	68393,61
471,72	68393,61
472,18	68393,61
472,65	68393,61
473,11	68393,61
473,57	68393,61
474,04	68393,61
474,50	68393,61
474,96	68393,61
475,43	68393,61
475,89	68393,61
476,35	68393,61
476,82	68393,61
477,28	68393,61
477,74	68393,61
478,21	68393,61
478,67	68393,61
479,13	68393,61
479,59	68393,61
480,06	68393,61
480,52	68393,61
480,98	68393,61
481,45	68393,61
481,91	68393,61
482,37	68393,61
482,84	68393,61
483,30	68393,61
483,76	68393,61
484,22	68393,61
484,69	68393,61
485,15	68393,61
485,61	68393,61
486,07	68393,61
486,54	68393,61
487,00	68393,61
487,46	68393,61
487,92	68393,61
488,39	68393,61
488,85	68393,61
489,31	68393,61
489,77	68393,61
490,24	68393,61
490,70	68393,61
491,16	68393,61
491,62	68393,61
492,09	68393,61
492,55	68393,61
493,01	68393,61
493,47	68393,61
493,94	68393,61
494,40	68393,61
494,86	68393,61
495,32	68393,61
495,78	68393,61
496,25	68393,61
496,71	68393,61
497,17	68393,61
497,63	68393,61
498,09	68393,61
498,56	68393,61
499,02	68393,61
499,48	68393,61
499,94	68393,61
500,40	68393,61
500,87	68393,61
501,33	68393,61
501,79	68393,61
502,25	68393,61
502,71	68393,61
503,17	68393,61
503,64	68393,61
504,10	68393,61
504,56	68393,61
505,02	68393,61
505,48	68393,61
505,94	68393,61
506,40	68393,61
506,87	68393,61
507,33	68393,61
507,79	68393,61
508,25	68393,61
508,71	68393,61
509,17	68393,61
509,63	68393,61
510,10	68393,61
510,56	68393,61
511,02	68393,61
511,48	68393,61
511,94	68393,61
512,40	68393,61
512,86	68393,61
513,32	68393,61
513,78	68393,61
514,25	68393,61
514,71	68393,61
515,17	68393,61
515,63	68393,61
516,09	68393,61
516,55	68393,61
517,01	68393,61
517,47	68393,61
517,93	68393,61
518,39	68393,61
518,85	68393,61
519,32	68393,61
519,78	68393,61
520,24	68393,61
520,70	68393,61
521,16	68393,61
521,62	68393,61
522,08	68393,61
522,54	68393,61
523,00	68393,61
523,46	68393,61
523,92	68393,61
524,38	68393,61
524,84	68393,61
525,30	68393,61
525,76	68393,61
526,22	68393,61
526,68	68393,61
527,14	68393,61
527,60	68393,61
528,06	68393,61
528,52	68393,61
528,98	68393,61
529,44	68393,61
529,90	68393,61
530,36	68393,61
530,82	68393,61
531,28	68393,61
531,74	68393,61
532,20	68393,61
532,66	68393,61
533,12	68393,61
533,58	68393,61
534,04	68393,61
534,50	68393,61
534,96	68393,61
535,42	68393,61
535,88	68393,61
536,34	68393,61
536,80	68393,61
537,26	68393,61
537,72	68393,61
538,18	68393,61
538,64	68393,61
539,10	68393,61
539,56	68393,61
540,02	68393,61
540,48	68393,61
540,94	68393,61
541,40	68393,61
541,86	68393,61
542,32	68393,61
542,78	68393,61
543,24	68393,61
543,69	68393,61
544,15	68393,61
544,61	68393,61
545,07	68393,61
545,53	68393,61
545,99	68393,61
546,45	68393,61
546,91	68393,61
547,37	68393,61
547,83	68393,61
548,29	68393,61
548,74	68393,61
549,20	68393,61
549,66	68393,61
550,12	68393,61
550,58	68393,61
551,04	68393,61
551,50	68393,61
551,96	68393,61
552,42	68393,61
552,87	68393,61
553,33	68393,61
553,79	68393,61
554,25	68393,61
554,71	68393,61
555,17	68393,61
555,63	68393,61
556,08	68393,61
556,54	68393,61
557,00	68393,61
557,46	68393,61
557,92	68393,61
558,38	68393,61
558,83	68393,61
559,29	68393,61
559,75	68393,61
560,21	68393,61
560,67	68393,61
561,13	68393,61
561,58	68393,61
562,04	68393,61
562,50	68393,61
562,96	68393,61
563,42	68393,61
563,87	68393,61
564,33	68393,61
564,79	68393,61
565,25	68393,61
565,71	68393,61
566,16	68393,61
566,62	68393,61
567,08	68393,61
567,54	68393,61
568,00	68393,61
568,45	68393,61
568,91	68393,61
569,37	68393,61
569,83	68393,61
570,28	68393,61
570,74	68393,61
571,20	68393,61
571,66	68393,61
572,11	68393,61
572,57	68393,61
573,03	68393,61
573,49	68393,61
573,94	68393,61
574,40	68393,61
574,86	68393,61
575,32	68393,61
575,77	68393,61
576,23	68393,61
576,69	68393,61
577,15	68393,61
577,60	68393,61
578,06	68393,61
578,52	68393,61
578,97	68393,61
579,43	68393,61
579,89	68393,61
580,34	68393,61
580,80	68393,61
581,26	68393,61
581,72	68393,61
582,17	68393,61
582,63	68393,61
583,09	68393,61
583,54	68393,61
584,00	68393,61
584,46	68393,61
584,91	68393,61
585,37	68393,61
585,83	68393,61
586,28	68393,61
586,74	68393,61
587,20	68393,61
587,65	68393,61
588,11	68393,61
588,57	68393,61
589,02	68393,61
589,48	68393,61
589,94	68393,61
590,39	68393,61
590,85	68393,61
591,30	68393,61
591,76	68393,61
592,22	68393,61
592,67	68393,61
593,13	68393,61
593,59	68393,61
594,04	68393,61
594,50	68393,61
594,95	68393,61
595,41	68393,61
595,87	68393,61
596,32	68393,61
596,78	68393,61
597,23	68393,61
597,69	68393,61
598,15	68393,61
598,60	68393,61
599,06	68393,61
599,51	68393,61
599,97	68393,61
600,43	68393,61
600,88	68393,61
601,34	68393,61
601,79	68393,61
602,25	68393,61
602,70	68393,61
603,16	68393,61
603,61	68393,61
604,07	68393,61
604,53	68393,61
604,98	68393,61
605,44	68393,61
605,89	68393,61
606,35	68393,61
606,80	68393,61
607,26	68393,61
607,71	68393,61
608,17	68393,61
608,62	68393,61
609,08	68393,61
609,53	68393,61
609,99	68393,61
610,44	68393,61
610,90	68393,61
611,35	68393,61
611,81	68393,61
612,26	68393,61
612,72	68393,61
613,17	68393,61
613,63	68393,61
614,08	68393,61
614,54	68393,61
614,99	68393,61
615,45	68393,61
615,90	68393,61
616,36	68393,61
616,81	68393,61
617,27	68393,61
617,72	68393,61
618,18	68393,61
618,63	68393,61
619,09	68393,61
619,54	68393,61
619,99	68393,61
620,45	68393,61
620,90	68393,61
621,36	68393,61
621,81	68393,61
622,27	68393,61
622,72	68393,61
623,18	68393,61
623,63	68393,61
624,08	68393,61
624,54	68393,61
624,99	68393,61
625,45	68393,61
625,90	68393,61
626,35	68393,61
626,81	68393,61
627,26	68393,61
627,72	68393,61
628,17	68393,61
628,62	68393,61
629,08	68393,61
629,53	68393,61
629,99	68393,61
630,44	68393,61
630,89	68393,61
631,35	68393,61
631,80	68393,61
632,26	68393,61
632,71	68393,61
633,16	68393,61
633,62	68393,61
634,07	68393,61
634,52	68393,61
634,98	68393,61
635,43	68393,61
635,88	68393,61
636,34	68393,61
636,79	68393,61
637,24	68393,61
637,70	68393,61
638,15	68393,61
638,60	68393,61
639,06	68393,61
639,51	68393,61
639,96	68393,61
640,42	68393,61
640,87	68393,61
641,32	68393,61
641,78	68393,61
642,23	68393,61
642,68	68393,61
643,14	68393,61
643,59	68393,61
644,04	68393,61
644,49	68393,61
644,95	68393,61
645,40	68393,61
645,85	68393,61
646,31	68393,61
646,76	68393,61
647,21	68393,61
647,66	68393,61
648,12	68393,61
648,57	68393,61
649,02	68393,61
649,47	68393,61
649,93	68393,61
650,38	68393,61
650,83	68393,61
651,28	68393,61
651,74	68393,61
652,19	68393,61
652,64	68393,61
653,09	68393,61
653,55	68393,61
654,00	68393,61
654,45	68393,61
654,90	68393,61
655,35	68393,61
655,81	68393,61
656,26	68393,61
656,71	68393,61
657,16	68393,61
657,62	68393,61
658,07	68393,61
658,52	68393,61
658,97	68393,61
659,42	68393,61
659,88	68393,61
660,33	68393,61
660,78	68393,61
661,23	68393,61
661,68	68393,61
662,13	68393,61
662,59	68393,61
663,04	68393,61
663,49	68393,61
663,94	68393,61
664,39	68393,61
664,84	68393,61
665,30	68393,61
665,75	68393,61
666,20	68393,61
666,65	68393,61
667,10	68393,61
667,55	68393,61
668,00	68393,61
668,46	68393,61
668,91	68393,61
669,36	68393,61
669,81	68393,61
670,26	68393,61
670,71	68393,61
671,16	68393,61
671,61	68393,61
672,06	68393,61
672,52	68393,61
672,97	68393,61
673,42	68393,61
673,87	68393,61
674,32	68393,61
674,77	68393,61
675,22	68393,61
675,67	68393,61
676,12	68393,61
676,57	68393,61
677,02	68393,61
677,47	68393,61
677,93	68393,61
678,38	68393,61
678,83	68393,61
679,28	68393,61
679,73	68393,61
680,18	68393,61
680,63	68393,61
681,08	68393,61
681,53	68393,61
681,98	68393,61
682,43	68393,61
682,88	68393,61
683,33	68393,61
683,78	68393,61
684,23	68393,61
684,68	68393,61
685,13	68393,61
685,58	68393,61
686,03	68393,61
686,48	68393,61
686,93	68393,61
687,38	68393,61
687,83	68393,61
688,28	68393,61
688,73	68393,61
689,18	68393,61
689,63	68393,61
690,08	68393,61
690,53	68393,61
690,98	68393,61
691,43	68393,61
691,88	68393,61
692,33	68393,61
692,78	68393,61
693,23	68393,61
693,68	68393,61
694,13	68393,61
694,58	68393,61
695,03	68393,61
695,48	68393,61
695,93	68393,61
696,38	68393,61
696,83	68393,61
697,28	68393,61
697,72	68393,61
698,17	68393,61
698,62	68393,61
699,07	68393,61
699,52	68393,61
699,97	68393,61
700,42	68393,61
700,87	68393,61
701,32	68393,61
701,77	68393,61
702,22	68393,61
702,67	68393,61
703,11	68393,61
703,56	68393,61
704,01	68393,61
704,46	68393,61
704,91	68393,61
705,36	68393,61
705,81	68393,61
706,26	68393,61
706,70	68393,61
707,15	68393,61
707,60	68393,61
708,05	68393,61
708,50	68393,61
708,95	68393,61
709,40	68393,61
709,84	68393,61
710,29	68393,61
710,74	68393,61
711,19	68393,61
711,64	68393,61
712,09	68393,61
712,53	68393,61
712,98	68393,61
713,43	68393,61
713,88	68393,61
714,33	68393,61
714,78	68393,61
715,22	68393,61
715,67	68393,61
716,12	68393,61
716,57	68393,61
717,02	68393,61
717,46	68393,61
717,91	68393,61
718,36	68393,61
718,81	68393,61
719,26	68393,61
719,70	68393,61
720,15	68393,61
720,60	68393,61
721,05	68393,61
721,49	68393,61
721,94	68393,61
722,39	68393,61
722,84	68393,61
723,28	68393,61
723,73	68393,61
724,18	68393,61
724,63	68393,61
725,07	68393,61
725,52	68393,61
725,97	68393,61
726,42	68393,61
726,86	68393,61
727,31	68393,61
727,76	68393,61
728,21	68393,61
728,65	68393,61
729,10	68393,61
729,55	68393,61
729,99	68393,61
730,44	68393,61
730,89	68393,61
731,33	68393,61
731,78	68393,61
732,23	68393,61
732,68	68393,61
733,12	68393,61
733,57	68393,61
734,02	68393,61
734,46	68393,61
734,91	68393,61
735,36	68393,61
735,80	68393,61
736,25	68393,61
736,70	68393,61
737,14	68393,61
737,59	68393,61
738,04	68393,61
738,48	68393,61
738,93	68393,61
739,37	68393,61
739,82	68393,61
740,27	68393,61
740,71	68393,61
741,16	68393,61
741,61	68393,61
742,05	68393,61
742,50	68393,61
742,94	68393,61
743,39	68393,61
743,84	68393,61
744,28	68393,61
744,73	68393,61
745,18	68393,61
745,62	68393,61
746,07	68393,61
746,51	68393,61
746,96	68393,61
747,40	68393,61
747,85	68393,61
748,30	68393,61
748,74	68393,61
749,19	68393,61
749,63	68393,61
750,08	68393,61
750,52	68393,61
750,97	68393,61
751,42	68393,61
751,86	68393,61
752,31	68393,61
752,75	68393,61
753,20	68393,61
753,64	68393,61
754,09	68393,61
754,53	68393,61
754,98	68393,61
755,42	68393,61
755,87	68393,61
756,31	68393,61
756,76	68393,61
757,20	68393,61
757,65	68393,61
758,09	68393,61
758,54	68393,61
758,98	68393,61
759,43	68393,61
759,87	68393,61
760,32	68393,61
760,76	68393,61
761,21	68393,61
761,65	68393,61
762,10	68393,61
762,54	68393,61
762,99	68393,61
763,43	68393,61
763,88	68393,61
764,32	68393,61
764,77	68393,61
765,21	68393,61
765,66	68393,61
766,10	68393,61
766,54	68393,61
766,99	68393,61
767,43	68393,61
767,88	68393,61
768,32	68393,61
768,77	68393,61
769,21	68393,61
769,66	68393,61
770,10	68393,61
770,54	68393,61
770,99	68393,61
771,43	68393,61
771,88	68393,61
772,32	68393,61
772,76	68393,61
773,21	68393,61
773,65	68393,61
774,10	68393,61
774,54	68393,61
774,98	68393,61
775,43	68393,61
775,87	68393,61
776,31	68393,61
776,76	68393,61
777,20	68393,61
777,65	68393,61
778,09	68393,61
778,53	68393,61
778,98	68393,61
779,42	68393,61
779,86	68393,61
780,31	68393,61
780,75	68393,61
781,19	68393,61
781,64	68393,61
782,08	68393,61
782,52	68393,61
782,97	68393,61
783,41	68393,61
783,85	68393,61
784,30	68393,61
784,74	68393,61
785,18	68393,61
785,63	68393,61
786,07	68393,61
786,51	68393,61
786,95	68393,61
787,40	68393,61
787,84	68393,61
788,28	68393,61
788,73	68393,61
789,17	68393,61
789,61	68393,61
790,05	68393,61
790,50	68393,61
790,94	68393,61
791,38	68393,61
791,82	68393,61
792,27	68393,61
792,71	68393,61
793,15	68393,61
793,59	68393,61
794,04	68393,61
794,48	68393,61
794,92	68393,61
795,36	68393,61
795,81	68393,61
796,25	68393,61
796,69	68393,61
797,13	68393,61
797,57	68393,61
798,02	68393,61
798,46	68393,61
798,90	68393,61
799,34	68393,61
799,79	68393,61
800,23	68393,61
800,67	68393,61
801,11	68393,61
801,55	68393,61
801,99	68393,61
802,44	68393,61
802,88	68393,61
803,32	68393,61
803,76	68393,61
804,20	68393,61
804,64	68393,61
805,09	68393,61
805,53	68393,61
805,97	68393,61
806,41	68393,61
806,85	68393,61
807,29	68393,61
807,74	68393,61
808,18	68393,61
808,62	68393,61
809,06	68393,61
809,50	68393,61
809,94	68393,61
810,38	68393,61
810,82	68393,61
811,27	68393,61
811,71	68393,61
812,15	68393,61
812,59	68393,61
813,03	68393,61
813,47	68393,61
813,91	68393,61
814,35	68393,61
814,79	68393,61
815,23	68393,61
815,67	68393,61
816,12	68393,61
816,56	68393,61
817,00	68393,61
817,44	68393,61
817,88	68393,61
818,32	68393,61
818,76	68393,61
819,20	68393,61
819,64	68393,61
820,08	68393,61
820,52	68393,61
820,96	68393,61
821,40	68393,61
821,84	68393,61
822,28	68393,61
822,72	68393,61
823,16	68393,61
823,60	68393,61
824,04	68393,61
824,48	68393,61
824,92	68393,61
825,36	68393,61
825,80	68393,61
826,24	68393,61
826,68	68393,61
827,12	68393,61
827,56	68393,61
828,00	68393,61
828,44	68393,61
828,88	68393,61
829,32	68393,61
829,76	67573,13
830,20	68393,61
830,64	65870,15
831,08	67868,19
831,52	64838,14
831,96	63743,19
832,40	61225,66
832,84	61909,08
833,28	62045,68
833,72	64271,43
834,16	62724,06
834,60	61591,20
835,04	60721,90
835,48	61506,77
835,91	59470,38
836,35	58503,04
836,79	57137,48
837,23	57415,88
837,67	55203,40
838,11	54809,45
838,55	55722,57
838,99	55787,89
839,43	59588,57
839,87	63183,85
840,30	59471,49
840,74	65332,09
841,18	64083,45
841,62	62486,94
842,06	59123,88
842,50	64491,11
842,94	58589,77
843,38	52694,11
843,81	51247,04
844,25	49387,92
844,69	48039,47
845,13	49210,44
845,57	47945,90
846,01	49127,78
846,45	47558,54
846,88	47346,23
847,32	48423,75
847,76	47382,53
848,20	47560,74
848,64	46862,43
849,08	47294,54
849,51	47654,26
849,95	46393,24
850,39	45076,43
850,83	46941,58
851,27	44824,35
851,70	45285,84
852,14	47559,64
852,58	44164,00
853,02	42576,01
853,46	43551,42
853,89	41135,39
854,33	43804,03
854,77	41196,33
855,21	41762,57
855,65	42947,18
856,08	43152,52
856,52	40874,30
856,96	40625,30
857,40	39462,48
857,83	37645,24
858,27	39987,63
858,71	36585,61
859,15	37282,41
859,58	37539,38
860,02	37921,86
860,46	38434,49
860,89	39013,75
861,33	37570,70
861,77	37802,98
862,21	37577,18
862,64	36717,13
863,08	36216,06
863,52	37090,31
863,95	35243,46
864,39	35375,68
864,83	34950,14
865,27	33730,46
865,70	34947,99
866,14	33430,57
866,58	36184,83
867,01	34415,54
867,45	35296,13
867,89	34548,60
868,32	33940,49
868,76	34607,63
869,20	33924,41
869,63	35174,68
870,07	35944,74
870,51	31332,41
870,94	31780,32
871,38	31736,58
871,82	30734,79
872,25	31836,88
872,69	32099,45
873,13	31337,74
873,56	33131,95
874,00	32733,01
874,43	31250,34
874,87	30651,76
875,31	32867,73
875,74	29472,80
876,18	31451,81
876,61	30538,94
877,05	30342,12
877,49	30142,18
877,92	29894,51
878,36	29903,01
878,79	28917,85
879,23	31153,37
879,67	28392,16
880,10	27928,45
880,54	28511,87
880,97	29400,61
881,41	30087,96
881,84	29122,56
882,28	29217,00
882,72	29043,00
883,15	28929,51
883,59	27802,55
884,02	29415,47
884,46	28576,51
884,89	28725,95
885,33	28993,15
885,76	27341,56
886,20	26786,05
886,63	29665,02
887,07	26424,19
887,50	26160,64
887,94	26935,95
888,37	26783,94
888,81	30863,63
889,24	26012,06
889,68	28400,64
890,11	26477,98
890,55	27910,46
890,98	27657,65
891,42	25966,76
891,85	26151,15
892,29	26448,45
892,72	25386,73
893,16	25770,87
893,59	26412,59
894,03	25516,14
894,46	26692,13
894,90	25142,75
895,33	24709,82
895,77	25742,45
896,20	26163,80
896,63	25094,39
897,07	24663,62
897,50	24733,98
897,94	26161,69
898,37	27074,28
898,81	25001,89
899,24	24850,58
899,68	24690,92
900,11	26303,99
900,54	25727,71
900,98	24515,58
901,41	26943,34
901,85	27252,80
902,28	23494,46
902,71	23870,52
903,15	26701,63
903,58	24160,93
904,02	24909,42
904,45	23770,97
904,88	23956,47
905,32	23112,49
905,75	26074,23
906,18	24380,19
906,62	25627,70
907,05	24702,47
907,48	24231,20
907,92	25157,47
908,35	26423,14
908,79	23733,25
909,22	22888,72
909,65	24658,37
910,09	25701,39
910,52	27833,23
910,95	29321,00
911,38	27474,73
911,82	32261,77
912,25	33683,32
912,68	28507,63
913,12	26033,13
913,55	24270,02
913,98	23150,15
914,42	23116,68
914,85	23268,38
915,28	22967,13
915,72	24316,18
916,15	22502,14
916,58	24227,01
917,01	22538,69
917,45	24129,47
917,88	22098,23
918,31	22737,18
918,74	22546,00
919,18	23532,16
919,61	23799,26
920,04	23355,24
920,47	26292,39
920,91	25384,63
921,34	23848,51
921,77	23575,09
922,20	24902,06
922,64	24504,03
923,07	25282,60
923,50	23574,04
923,93	21186,64
924,37	22799,88
924,80	21153,34
925,23	23300,81
925,66	24835,87
926,09	21692,68
926,53	22602,41
926,96	20599,25
927,39	24746,58
927,82	21951,18
928,25	20674,04
928,69	22906,49
929,12	21423,95
929,55	22408,17
929,98	22906,49
930,41	21139,82
930,84	22110,75
931,28	19863,55
931,71	23923,97
932,14	22692,25
932,57	24966,16
933,00	21120,05
933,43	22727,77
933,86	22408,17
934,30	22030,43
934,73	21306,31
935,16	20146,64
935,59	20887,10
936,02	20150,79
936,45	21325,05
936,88	19796,19
937,31	21587,45
937,75	20062,63
938,18	20218,23
938,61	21324,01
939,04	19602,45
939,47	20519,27
939,90	21655,17
940,33	23380,36
940,76	19712,25
941,19	21536,41
941,62	19406,75
942,05	19820,02
942,48	21109,65
942,91	19060,17
943,35	18824,49
943,78	21088,84
944,21	20865,27
944,64	20824,73
945,07	20220,31
945,50	20347,96
945,93	20590,94
946,36	21811,48
946,79	20109,30
947,22	20309,55
947,65	20745,74
948,08	18819,32
948,51	18982,62
948,94	19290,84
949,37	23525,87
949,80	21796,89
950,23	19818,99
950,66	19407,79
951,09	20515,12
951,52	18560,07
951,95	21021,24
952,38	19636,63
952,81	22611,81
953,24	18897,86
953,67	19457,48
954,10	19632,49
954,53	19475,08
954,96	19842,82
955,39	20912,05
955,82	19213,24
956,25	20848,64
956,68	23816,03
957,11	18938,17
957,53	20715,61
957,96	20313,71
958,39	19491,64
958,82	19345,69
959,25	19454,37
959,68	18097,84
960,11	20004,55
960,54	20597,17
960,97	20580,55
961,40	21330,25
961,83	21052,44
962,26	19696,71
962,68	20354,19
963,11	19973,44
963,54	21369,81
963,97	21493,71
964,40	20267,00
964,83	22901,27
965,26	22403,99
965,69	21288,62
966,11	21463,52
966,54	19338,44
966,97	19533,06
967,40	21316,72
967,83	25328,88
968,26	20826,81
968,69	19791,01
969,11	20448,66
969,54	18945,41
969,97	19251,52
970,40	20606,52
970,83	19313,61
971,26	19817,95
971,68	18702,58
972,11	19184,28
972,54	19485,43
972,97	20547,31
973,40	19425,39
973,82	20488,12
974,25	19977,59
974,68	19182,21
975,11	18923,70
975,54	18982,62
975,96	19879,10
976,39	18980,56
976,82	20826,81
977,25	19925,75
977,67	19664,60
978,10	19961,00
978,53	19388,12
978,96	20931,81
979,38	20506,81
979,81	18937,14
980,24	19875,99
980,67	20952,60
981,09	19526,85
981,52	19588,99
981,95	19038,45
982,38	19319,81
982,80	18682,95
983,23	20975,48
983,66	20559,78
984,08	18582,78
984,51	17559,07
984,94	19320,85
985,37	20106,19
985,79	19039,49
986,22	18675,72
986,65	19810,70
987,07	19239,11
987,50	19628,34
987,93	19306,36
988,35	19777,53
988,78	19286,70
989,21	19033,28
989,63	20017,00
990,06	19266,01
990,49	19851,12
990,91	21691,63
991,34	19051,89
991,77	18491,93
992,19	19330,16
992,62	18738,73
993,05	18935,07
993,47	20040,85
993,90	20171,54
994,32	19688,43
994,75	19517,53
995,18	18007,13
995,60	18150,43
996,03	17676,43
996,45	20593,01
996,88	20226,53
997,31	18817,25
997,73	19678,07
998,16	18498,12
998,58	21218,89
999,01	19409,86
999,44	19446,09
999,86	21046,20
1000,29	18510,51
1000,71	19654,24
1001,14	20255,59
1001,56	19475,08
1001,99	19672,89
1002,41	19412,96
1002,84	20104,11
1003,27	18598,27
1003,69	19888,43
1004,12	19771,32
1004,54	21240,75
1004,97	19581,74
1005,39	18374,27
1005,82	20227,57
1006,24	19868,74
1006,67	19136,70
1007,09	18741,83
1007,52	19907,09
1007,94	19708,11
1008,37	25246,84
1008,79	21854,22
1009,22	21695,80
1009,64	21271,97
1010,07	21844,84
1010,49	23057,06
1010,92	23043,47
1011,34	27567,77
1011,77	26801,88
1012,19	25265,77
1012,62	28552,14
1013,04	31510,46
1013,46	29795,68
1013,89	22836,46
1014,31	23443,16
1014,74	20982,76
1015,16	21185,59
1015,59	19931,97
1016,01	21206,41
1016,44	20079,22
1016,86	34999,55
1017,28	19874,96
1017,71	18359,83
1018,13	23720,68
1018,56	21292,78
1018,98	20562,89
1019,40	19138,76
1019,83	19602,45
1020,25	20028,40
1020,68	20052,26
1021,10	19903,98
1021,52	19620,06
1021,95	24358,15
1022,37	20939,08
1022,79	20436,20
1023,22	20041,88
1023,64	19554,81
1024,07	19728,83
1024,49	20109,30
1024,91	18536,32
1025,34	18488,83
1025,76	22182,73
1026,18	20032,55
1026,61	19671,85
1027,03	19381,91
1027,45	19585,88
1027,88	18549,74
1028,30	22247,43
1028,72	19387,09
1029,15	19178,07
1029,57	19740,23
1029,99	21242,83
1030,41	18030,83
1030,84	19460,58
1031,26	20019,07
1031,68	18477,48
1032,11	20344,84
1032,53	18438,26
1032,95	18305,14
1033,37	19754,74
1033,80	20233,80
1034,22	18713,94
1034,64	21768,75
1035,06	18449,61
1035,49	18695,35
1035,91	19243,24
1036,33	17749,55
1036,75	20099,97
1037,18	20354,19
1037,60	20024,25
1038,02	20413,36
1038,44	21016,04
1038,87	18787,29
1039,29	18826,55
1039,71	19485,43
1040,13	18555,94
1040,55	20986,92
1040,98	20634,56
1041,40	20084,41
1041,82	20394,67
1042,24	19140,83
1042,66	20133,16
1043,09	18144,24
1043,51	18984,69
1043,93	18711,88
1044,35	18082,38
1044,77	19124,28
1045,20	19905,02
1045,62	18416,58
1046,04	19606,59
1046,46	19938,19
1046,88	18205,09
1047,30	20419,59
1047,72	19906,05
1048,15	20299,18
1048,57	18835,85
1048,99	18869,96
1049,41	19770,28
1049,83	20196,44
1050,25	21691,63
1050,67	20706,25
1051,09	19201,86
1051,52	19500,96
1051,94	17041,75
1052,36	19292,91
1052,78	17383,11
1053,20	18723,24
1053,62	18391,82
1054,04	19556,88
1054,46	19680,14
1054,88	21553,08
1055,30	20382,21
1055,72	20288,80
1056,14	19475,08
1056,57	24223,86
1056,99	18322,68
1057,41	19735,05
1057,83	19774,42
1058,25	18600,34
1058,67	18842,05
1059,09	18528,06
1059,51	20381,18
1059,93	19258,76
1060,35	18683,99
1060,77	20071,96
1061,19	20472,54
1061,61	19242,21
1062,03	18806,92
1062,45	18303,08
1062,87	20056,40
1063,29	20058,48
1063,71	18724,27
1064,13	18166,93
1064,55	17619,80
1064,97	20235,87
1065,39	19168,76
1065,81	19135,66
1066,23	19306,36
1066,65	18707,74
1067,07	21343,79
1067,49	19072,58
1067,91	18629,25
1068,33	17693,94
1068,75	20121,75
1069,17	20444,51
1069,59	20201,63
1070,00	18679,86
1070,42	19768,21
1070,84	18655,07
1071,26	17936,01
1071,68	17686,73
1072,10	19968,26
1072,52	18664,36
1072,94	17829,89
1073,36	18411,42
1073,78	18558,00
1074,20	19128,42
1074,62	18304,11
1075,03	18220,56
1075,45	18752,16
1075,87	20124,86
1076,29	18469,22
1076,71	19836,61
1077,13	21026,44
1077,55	17156,87
1077,97	19357,07
1078,38	18352,60
1078,80	18860,66
1079,22	19323,95
1079,64	18894,76
1080,06	18785,22
1080,48	19420,21
1080,89	18947,48
1081,31	18810,02
1081,73	18884,43
1082,15	19039,49
1082,57	20180,88
1082,99	18955,74
1083,40	18441,35
1083,82	20559,78
1084,24	17902,01
1084,66	18515,67
1085,08	19399,51
1085,49	17518,93
1085,91	19732,98
1086,33	38748,39
1086,75	19635,59
1087,17	18236,03
1087,58	18376,34
1088,00	18611,69
1088,42	20283,61
1088,84	18818,29
1089,25	17852,55
1089,67	18506,38
1090,09	18569,36
1090,51	18101,97
1090,92	18762,50
1091,34	18269,04
1091,76	18935,07
1092,18	18500,19
1092,59	18892,69
1093,01	18493,99
1093,43	18730,47
1093,84	18057,64
1094,26	18721,17
1094,68	19389,16
1095,10	17879,34
1095,51	18600,34
1095,93	18343,32
1096,35	19577,59
1096,76	19485,43
1097,18	19296,01
1097,60	18784,19
1098,01	18441,35
1098,43	17976,21
1098,85	18561,10
1099,26	18254,60
1099,68	18855,49
1100,10	17660,99
1100,51	18252,53
1100,93	18456,83
1101,35	18604,47
1101,76	18947,48
1102,18	27514,90
1102,60	20454,89
1103,01	16717,18
1103,43	18612,73
1103,84	18369,11
1104,26	17996,82
1104,68	18545,61
1105,09	16640,20
1105,51	17179,48
1105,92	19565,17
1106,34	17112,67
1106,76	19180,14
1107,17	18965,05
1107,59	18862,72
1108,00	16931,81
1108,42	18095,78
1108,83	16987,29
1109,25	17936,01
1109,67	17110,61
1110,08	17275,11
1110,50	16722,32
1110,91	17954,56
1111,33	17129,11
1111,74	17065,39
1112,16	18259,75
1112,57	18569,36
1112,99	17421,17
1113,41	17673,34
1113,82	17425,29
1114,24	18364,99
1114,65	17775,30
1115,07	16989,35
1115,48	16572,47
1115,90	1876,71
1116,31	2215,93
1116,73	2179,02
1117,14	2178,02
>>>>>End Processed Spectral Data<<<<<
