SpectraSuite Data File
++++++++++++++++++++++++++++++++++++
Date: Wed Jul 27 14:07:41 EEST 2016
User: OO Maya
Dark Spectrum Present: No
Reference Spectrum Present: No
Number of Sampled Component Spectra: 1
Spectrometers: MAYP11278
Integration Time (usec): 15000000 (MAYP11278)
Spectra Averaged: 1 (MAYP11278)
Boxcar Smoothing: 0 (MAYP11278)
Correct for Electrical Dark: No (MAYP11278)
Strobe/Lamp Enabled: No (MAYP11278)
Correct for Detector Non-linearity: Yes (MAYP11278)
Correct for Stray Light: No (MAYP11278)
Number of Pixels in Processed Spectrum: 2068
>>>>>Begin Processed Spectral Data<<<<<
187,82	2367,59
188,30	2290,76
188,78	2247,86
189,26	2256,84
189,73	16317,07
190,21	18244,28
190,69	18810,02
191,17	19575,52
191,64	20625,22
192,12	19544,45
192,60	19183,24
193,07	18412,46
193,55	19609,70
194,03	19333,27
194,51	19752,66
194,98	19279,46
195,46	20624,18
195,94	19174,97
196,42	19559,99
196,89	22452,02
197,37	19462,66
197,85	18636,48
198,32	19178,07
198,80	18630,28
199,28	19917,46
199,76	20413,36
200,23	19240,14
200,71	19277,39
201,19	20426,86
201,66	20427,89
202,14	20071,96
202,62	18619,96
203,09	20004,55
203,57	18784,19
204,05	20670,93
204,53	20975,48
205,00	18841,02
205,48	19067,41
205,96	21134,61
206,43	19135,66
206,91	19967,22
207,39	22495,88
207,86	19973,44
208,34	20315,78
208,82	19426,42
209,29	20531,73
209,77	20182,96
210,25	19584,84
210,72	19418,14
211,20	20114,49
211,68	19607,63
212,15	18967,12
212,63	21793,76
213,11	20404,01
213,58	19408,82
214,06	21540,58
214,53	19872,88
215,01	21471,85
215,49	20122,79
215,96	20539,00
216,44	20353,15
216,92	20426,86
217,39	19130,49
217,87	19399,51
218,35	21022,28
218,82	18394,91
219,30	18951,61
219,77	19174,97
220,25	19991,07
220,73	22379,98
221,20	19184,28
221,68	20960,92
222,15	19095,33
222,63	20794,59
223,11	19324,99
223,58	20611,71
224,06	19669,78
224,53	19331,20
225,01	18946,44
225,49	19748,52
225,96	19057,07
226,44	19956,85
226,91	20808,10
227,39	19863,55
227,87	21094,04
228,34	20683,39
228,82	20614,83
229,29	19516,50
229,77	19832,46
230,24	19494,75
230,72	20731,19
231,20	20576,39
231,67	19975,52
232,15	20052,26
232,62	19165,66
233,10	20282,57
233,57	20292,95
234,05	23915,59
234,53	20580,55
235,00	19401,58
235,48	19220,48
235,95	18759,40
236,43	20876,70
236,90	22383,11
237,38	19433,67
237,85	20280,49
238,33	20130,05
238,80	20344,84
239,28	19896,73
239,75	18881,33
240,23	20582,63
240,71	21537,46
241,18	20411,28
241,66	19930,94
242,13	20984,84
242,61	21373,97
243,08	18836,89
243,56	19192,55
244,03	20836,16
244,51	21540,58
244,98	19850,08
245,46	21627,04
245,93	68393,61
246,41	18723,24
246,88	20311,63
247,36	20066,78
247,83	20270,12
248,31	20301,25
248,78	18660,23
249,26	20197,48
249,73	20768,60
250,21	20468,39
250,68	21743,74
251,16	20201,63
251,63	22470,82
252,10	21683,30
252,58	19726,76
253,05	21468,72
253,53	20181,92
254,00	19901,91
254,48	20284,65
254,95	20473,58
255,43	21090,92
255,90	19480,26
256,38	20350,03
256,85	20943,24
257,33	21327,13
257,80	23701,83
258,27	20617,94
258,75	19772,35
259,22	20658,46
259,70	21045,16
260,17	22129,52
260,65	20413,36
261,12	19769,24
261,59	21624,95
262,07	19484,40
262,54	20824,73
263,02	19984,85
263,49	19090,16
263,97	21084,68
264,44	21461,43
264,91	19893,62
265,39	20460,08
265,86	20849,68
266,34	21125,25
266,81	19987,96
267,28	20143,53
267,76	20673,00
268,23	20836,16
268,71	18702,58
269,18	19542,38
269,65	19817,95
270,13	21001,48
270,60	21883,41
271,08	20289,83
271,55	20466,31
272,02	19274,28
272,50	19476,11
272,97	18737,70
273,44	20673,00
273,92	24747,63
274,39	21360,44
274,87	21735,40
275,34	20270,12
275,81	20599,25
276,29	21261,56
276,76	21604,12
277,23	19556,88
277,71	20673,00
278,18	19593,13
278,65	25517,20
279,13	20579,51
279,60	20176,73
280,07	25366,74
280,55	21926,15
281,02	24657,32
281,50	20281,53
281,97	22093,01
282,44	20612,75
282,91	20834,08
283,39	21616,62
283,86	20174,66
284,33	20021,14
284,81	21796,89
285,28	21085,72
285,75	21456,23
286,23	21396,88
286,70	19815,88
287,17	21718,73
287,65	23202,46
288,12	21029,56
288,59	22095,10
289,07	19578,63
289,54	22943,09
290,01	20677,16
290,48	22032,52
290,96	21101,32
291,43	22409,21
291,90	24647,87
292,38	21686,42
292,85	24070,74
293,32	22868,86
293,79	24496,68
294,27	25195,32
294,74	24896,81
295,21	26102,68
295,69	27669,28
296,16	30671,98
296,63	31639,51
297,10	30969,06
297,58	31646,97
298,05	32393,15
298,52	32699,87
298,99	35742,42
299,47	34660,22
299,94	36098,68
300,41	35964,11
300,88	38516,73
301,36	39842,18
301,83	40816,66
302,30	39177,37
302,77	41268,16
303,25	41952,18
303,72	41039,64
304,19	41914,04
304,66	42209,47
305,13	43664,04
305,61	44678,64
306,08	44892,29
306,55	45999,01
307,02	45445,96
307,49	45750,96
307,97	46703,07
308,44	46771,21
308,91	48168,28
309,38	48873,21
309,86	48536,10
310,33	48512,96
310,80	49389,02
311,27	49215,95
311,74	54170,04
312,21	58866,74
312,69	62599,20
313,16	55590,82
313,63	50443,46
314,10	49992,23
314,57	48950,34
315,05	48866,60
315,52	50454,50
315,99	50286,78
316,46	49725,32
316,93	50409,26
317,40	50077,17
317,88	52891,94
318,35	50103,64
318,82	49558,81
319,29	48420,45
319,76	49955,83
320,23	51746,18
320,70	50275,75
321,18	48645,15
321,65	47026,23
322,12	47016,33
322,59	49318,47
323,06	46430,59
323,53	48728,87
324,00	43874,04
324,48	45256,23
324,95	44984,35
325,42	44252,66
325,89	44587,72
326,36	44701,64
326,83	46558,02
327,30	46690,98
327,77	46386,65
328,24	45772,90
328,72	45019,43
329,19	43777,78
329,66	42794,31
330,13	41640,55
330,60	42112,43
331,07	40550,30
331,54	41178,91
332,01	38589,25
332,48	42314,17
332,95	41960,90
333,43	42205,11
333,90	44102,71
334,37	43250,85
334,84	43621,40
335,31	47021,83
335,78	41465,21
336,25	42148,41
336,72	40406,86
337,19	39604,56
337,66	38455,05
338,13	38097,00
338,60	39772,73
339,07	38582,75
339,54	35933,97
340,01	35633,77
340,49	35148,89
340,96	36513,40
341,43	36808,78
341,90	34850,26
342,37	35382,13
342,84	35446,64
343,31	34792,28
343,78	33874,04
344,25	33694,03
344,72	32687,04
345,19	32890,19
345,66	33474,47
346,13	32048,21
346,60	31313,23
347,07	33691,89
347,54	30877,47
348,01	32475,42
348,48	31188,53
348,95	29380,44
349,42	30676,24
349,89	31302,57
350,36	29798,87
350,83	28741,85
351,30	30024,17
351,77	31363,33
352,24	29720,26
352,71	28716,41
353,18	28756,69
353,65	29018,60
354,12	28349,79
354,59	28889,22
355,06	28197,30
355,53	29632,09
356,00	27171,45
356,47	29143,78
356,94	26246,01
357,41	30725,21
357,88	27754,95
358,35	25585,60
358,82	25978,35
359,28	26067,90
359,75	26003,64
360,22	27391,23
360,69	28129,55
361,16	25710,86
361,63	26084,76
362,10	26184,88
362,57	26626,71
363,04	27889,30
363,51	33033,52
363,98	34910,40
364,45	45133,43
364,92	50494,23
365,39	35555,25
365,86	28934,82
366,32	27966,55
366,79	25595,07
367,26	46272,42
367,73	23020,46
368,20	23634,79
368,67	25444,59
369,14	23368,84
369,61	25381,47
370,08	24644,72
370,55	23788,78
371,02	33413,44
371,48	24559,67
371,95	23386,64
372,42	22306,91
372,89	22776,89
373,36	23693,45
373,83	22399,82
374,30	22761,21
374,77	24006,79
375,23	21950,13
375,70	25272,08
376,17	23021,51
376,64	22211,95
377,11	22190,04
377,58	23915,59
378,05	23320,70
378,51	22919,04
378,98	23332,21
379,45	23046,60
379,92	23831,75
380,39	26138,51
380,86	23229,66
381,33	24700,37
381,79	24606,92
382,26	21856,30
382,73	23323,84
383,20	22673,44
383,67	23997,35
384,14	22895,00
384,60	29284,91
385,07	22940,99
385,54	22414,43
386,01	22559,58
386,48	25020,81
386,94	21970,99
387,41	21712,47
387,88	23977,43
388,35	23404,43
388,82	24380,19
389,28	22437,40
389,75	23863,18
390,22	23462,01
390,69	23979,53
391,16	23388,73
391,62	23216,06
392,09	23429,55
392,56	23024,64
393,03	22953,54
393,50	26094,25
393,96	23269,42
394,43	24667,82
394,90	22530,34
395,37	24593,27
395,83	29502,53
396,30	22674,49
396,77	24623,71
397,24	25091,24
397,70	23152,24
398,17	24510,33
398,64	24256,38
399,11	23998,40
399,57	26658,37
400,04	24338,21
400,51	26041,56
400,98	26370,41
401,44	27878,72
401,91	29141,66
402,38	32355,76
402,84	41446,70
403,31	61512,40
403,78	68393,61
404,25	68393,61
404,71	68393,61
405,18	50504,16
405,65	37476,75
406,12	38660,69
406,58	40147,24
407,05	44687,40
407,52	45811,31
407,98	45030,39
408,45	45718,03
408,92	45648,91
409,38	50551,61
409,85	51609,23
410,32	56843,67
410,78	58259,64
411,25	63902,81
411,72	66756,27
412,18	68393,61
412,65	68393,61
413,12	68393,61
413,59	68393,61
414,05	68393,61
414,52	68393,61
414,98	68393,61
415,45	68393,61
415,92	68393,61
416,38	68393,61
416,85	68393,61
417,32	68393,61
417,78	68393,61
418,25	68393,61
418,72	68393,61
419,18	68393,61
419,65	68393,61
420,12	68393,61
420,58	68393,61
421,05	68393,61
421,51	68393,61
421,98	68393,61
422,45	68393,61
422,91	68393,61
423,38	68393,61
423,85	68393,61
424,31	68393,61
424,78	68393,61
425,24	68393,61
425,71	68393,61
426,18	68393,61
426,64	68393,61
427,11	68393,61
427,57	68393,61
428,04	68393,61
428,51	68393,61
428,97	68393,61
429,44	68393,61
429,90	68393,61
430,37	68393,61
430,83	68393,61
431,30	68393,61
431,77	68393,61
432,23	68393,61
432,70	68393,61
433,16	68393,61
433,63	68393,61
434,09	68393,61
434,56	68393,61
435,03	68393,61
435,49	68393,61
435,96	68393,61
436,42	68393,61
436,89	68393,61
437,35	68393,61
437,82	68393,61
438,28	68393,61
438,75	68393,61
439,21	68393,61
439,68	68393,61
440,14	68393,61
440,61	68393,61
441,07	68393,61
441,54	68393,61
442,00	68393,61
442,47	68393,61
442,94	68393,61
443,40	68393,61
443,87	68393,61
444,33	68393,61
444,80	68393,61
445,26	68393,61
445,73	68393,61
446,19	68393,61
446,65	68393,61
447,12	68393,61
447,58	68393,61
448,05	68393,61
448,51	68393,61
448,98	68393,61
449,44	68393,61
449,91	68393,61
450,37	68393,61
450,84	68393,61
451,30	68393,61
451,77	68393,61
452,23	68393,61
452,70	68393,61
453,16	68393,61
453,62	68393,61
454,09	68393,61
454,55	68393,61
455,02	68393,61
455,48	68393,61
455,95	68393,61
456,41	68393,61
456,88	68393,61
457,34	68393,61
457,80	68393,61
458,27	68393,61
458,73	68393,61
459,20	68393,61
459,66	68393,61
460,13	68393,61
460,59	68393,61
461,05	68393,61
461,52	68393,61
461,98	68393,61
462,45	68393,61
462,91	68393,61
463,37	68393,61
463,84	68393,61
464,30	68393,61
464,76	68393,61
465,23	68393,61
465,69	68393,61
466,16	68393,61
466,62	68393,61
467,08	68393,61
467,55	68393,61
468,01	68393,61
468,48	68393,61
468,94	68393,61
469,40	68393,61
469,87	68393,61
470,33	68393,61
470,79	68393,61
471,26	68393,61
471,72	68393,61
472,18	68393,61
472,65	68393,61
473,11	68393,61
473,57	68393,61
474,04	68393,61
474,50	68393,61
474,96	68393,61
475,43	68393,61
475,89	68393,61
476,35	68393,61
476,82	68393,61
477,28	68393,61
477,74	68393,61
478,21	68393,61
478,67	68393,61
479,13	68393,61
479,59	68393,61
480,06	68393,61
480,52	68393,61
480,98	68393,61
481,45	68393,61
481,91	68393,61
482,37	68393,61
482,84	68393,61
483,30	68393,61
483,76	68393,61
484,22	68393,61
484,69	68393,61
485,15	68393,61
485,61	68393,61
486,07	68393,61
486,54	68393,61
487,00	68393,61
487,46	68393,61
487,92	68393,61
488,39	68393,61
488,85	68393,61
489,31	68393,61
489,77	68393,61
490,24	68393,61
490,70	68393,61
491,16	68393,61
491,62	68393,61
492,09	68393,61
492,55	68393,61
493,01	68393,61
493,47	68393,61
493,94	68393,61
494,40	68393,61
494,86	68393,61
495,32	68393,61
495,78	68393,61
496,25	68393,61
496,71	68393,61
497,17	68393,61
497,63	68393,61
498,09	68393,61
498,56	68393,61
499,02	68393,61
499,48	68393,61
499,94	68393,61
500,40	68393,61
500,87	68393,61
501,33	68393,61
501,79	68393,61
502,25	68393,61
502,71	68393,61
503,17	68393,61
503,64	68393,61
504,10	68393,61
504,56	68393,61
505,02	68393,61
505,48	68393,61
505,94	68393,61
506,40	68393,61
506,87	68393,61
507,33	68393,61
507,79	68393,61
508,25	68393,61
508,71	68393,61
509,17	68393,61
509,63	68393,61
510,10	68393,61
510,56	68393,61
511,02	68393,61
511,48	68393,61
511,94	68393,61
512,40	68393,61
512,86	68393,61
513,32	68393,61
513,78	68393,61
514,25	68393,61
514,71	68393,61
515,17	68393,61
515,63	68393,61
516,09	68393,61
516,55	68393,61
517,01	68393,61
517,47	68393,61
517,93	68393,61
518,39	68393,61
518,85	68393,61
519,32	68393,61
519,78	68393,61
520,24	68393,61
520,70	68393,61
521,16	68393,61
521,62	68393,61
522,08	68393,61
522,54	68393,61
523,00	68393,61
523,46	68393,61
523,92	68393,61
524,38	68393,61
524,84	68393,61
525,30	68393,61
525,76	68393,61
526,22	68393,61
526,68	68393,61
527,14	68393,61
527,60	68393,61
528,06	68393,61
528,52	68393,61
528,98	68393,61
529,44	68393,61
529,90	68393,61
530,36	68393,61
530,82	68393,61
531,28	68393,61
531,74	68393,61
532,20	68393,61
532,66	68393,61
533,12	68393,61
533,58	68393,61
534,04	68393,61
534,50	68393,61
534,96	68393,61
535,42	68393,61
535,88	68393,61
536,34	68393,61
536,80	68393,61
537,26	68393,61
537,72	68393,61
538,18	68393,61
538,64	68393,61
539,10	68393,61
539,56	68393,61
540,02	68393,61
540,48	68393,61
540,94	68393,61
541,40	68393,61
541,86	68393,61
542,32	68393,61
542,78	68393,61
543,24	68393,61
543,69	68393,61
544,15	68393,61
544,61	68393,61
545,07	68393,61
545,53	68393,61
545,99	68393,61
546,45	68393,61
546,91	68393,61
547,37	68393,61
547,83	68393,61
548,29	68393,61
548,74	68393,61
549,20	68393,61
549,66	68393,61
550,12	68393,61
550,58	68393,61
551,04	68393,61
551,50	68393,61
551,96	68393,61
552,42	68393,61
552,87	68393,61
553,33	68393,61
553,79	68393,61
554,25	68393,61
554,71	68393,61
555,17	68393,61
555,63	68393,61
556,08	68393,61
556,54	68393,61
557,00	68393,61
557,46	68393,61
557,92	68393,61
558,38	68393,61
558,83	68393,61
559,29	68393,61
559,75	68393,61
560,21	68393,61
560,67	68393,61
561,13	68393,61
561,58	68393,61
562,04	68393,61
562,50	68393,61
562,96	68393,61
563,42	68393,61
563,87	68393,61
564,33	68393,61
564,79	68393,61
565,25	68393,61
565,71	68393,61
566,16	68393,61
566,62	68393,61
567,08	68393,61
567,54	68393,61
568,00	68393,61
568,45	68393,61
568,91	68393,61
569,37	68393,61
569,83	68393,61
570,28	68393,61
570,74	68393,61
571,20	68393,61
571,66	68393,61
572,11	68393,61
572,57	68393,61
573,03	68393,61
573,49	68393,61
573,94	68393,61
574,40	68393,61
574,86	68393,61
575,32	68393,61
575,77	68393,61
576,23	68393,61
576,69	68393,61
577,15	68393,61
577,60	68393,61
578,06	68393,61
578,52	68393,61
578,97	68393,61
579,43	68393,61
579,89	68393,61
580,34	68393,61
580,80	68393,61
581,26	68393,61
581,72	68393,61
582,17	68393,61
582,63	68393,61
583,09	68393,61
583,54	68393,61
584,00	68393,61
584,46	68393,61
584,91	68393,61
585,37	68393,61
585,83	68393,61
586,28	68393,61
586,74	68393,61
587,20	68393,61
587,65	68393,61
588,11	68393,61
588,57	68393,61
589,02	68393,61
589,48	68393,61
589,94	68393,61
590,39	68393,61
590,85	68393,61
591,30	68393,61
591,76	68393,61
592,22	68393,61
592,67	68393,61
593,13	68393,61
593,59	68393,61
594,04	68393,61
594,50	68393,61
594,95	68393,61
595,41	68393,61
595,87	68393,61
596,32	68393,61
596,78	68393,61
597,23	68393,61
597,69	68393,61
598,15	68393,61
598,60	68393,61
599,06	68393,61
599,51	68393,61
599,97	68393,61
600,43	68393,61
600,88	68393,61
601,34	68393,61
601,79	68393,61
602,25	68393,61
602,70	68393,61
603,16	68393,61
603,61	68393,61
604,07	68393,61
604,53	68393,61
604,98	68393,61
605,44	68393,61
605,89	68393,61
606,35	68393,61
606,80	68393,61
607,26	68393,61
607,71	68393,61
608,17	68393,61
608,62	68393,61
609,08	68393,61
609,53	68393,61
609,99	68393,61
610,44	68393,61
610,90	68393,61
611,35	68393,61
611,81	68393,61
612,26	68393,61
612,72	68393,61
613,17	68393,61
613,63	68393,61
614,08	68393,61
614,54	68393,61
614,99	68393,61
615,45	68393,61
615,90	68393,61
616,36	68393,61
616,81	68393,61
617,27	68393,61
617,72	68393,61
618,18	68393,61
618,63	68393,61
619,09	68393,61
619,54	68393,61
619,99	68393,61
620,45	68393,61
620,90	68393,61
621,36	68393,61
621,81	68393,61
622,27	68393,61
622,72	68393,61
623,18	68393,61
623,63	68393,61
624,08	68393,61
624,54	68393,61
624,99	68393,61
625,45	68393,61
625,90	68393,61
626,35	68393,61
626,81	68393,61
627,26	68393,61
627,72	68393,61
628,17	68393,61
628,62	68393,61
629,08	68393,61
629,53	68393,61
629,99	68393,61
630,44	68393,61
630,89	68393,61
631,35	68393,61
631,80	68393,61
632,26	68393,61
632,71	68393,61
633,16	68393,61
633,62	68393,61
634,07	68393,61
634,52	68393,61
634,98	68393,61
635,43	68393,61
635,88	68393,61
636,34	68393,61
636,79	68393,61
637,24	68393,61
637,70	68393,61
638,15	68393,61
638,60	68393,61
639,06	68393,61
639,51	68393,61
639,96	68393,61
640,42	68393,61
640,87	68393,61
641,32	68393,61
641,78	68393,61
642,23	68393,61
642,68	68393,61
643,14	68393,61
643,59	68393,61
644,04	68393,61
644,49	68393,61
644,95	68393,61
645,40	68393,61
645,85	68393,61
646,31	68393,61
646,76	68393,61
647,21	68393,61
647,66	68393,61
648,12	68393,61
648,57	68393,61
649,02	68393,61
649,47	68393,61
649,93	68393,61
650,38	68393,61
650,83	68393,61
651,28	68393,61
651,74	68393,61
652,19	68393,61
652,64	68393,61
653,09	68393,61
653,55	68393,61
654,00	68393,61
654,45	68393,61
654,90	68393,61
655,35	68393,61
655,81	68393,61
656,26	68393,61
656,71	68393,61
657,16	68393,61
657,62	68393,61
658,07	68393,61
658,52	68393,61
658,97	68393,61
659,42	68393,61
659,88	68393,61
660,33	68393,61
660,78	68393,61
661,23	68393,61
661,68	68393,61
662,13	68393,61
662,59	68393,61
663,04	68393,61
663,49	68393,61
663,94	68393,61
664,39	68393,61
664,84	68393,61
665,30	68393,61
665,75	68393,61
666,20	68393,61
666,65	68393,61
667,10	68393,61
667,55	68393,61
668,00	68393,61
668,46	68393,61
668,91	68393,61
669,36	68393,61
669,81	68393,61
670,26	68393,61
670,71	68393,61
671,16	68393,61
671,61	68393,61
672,06	68393,61
672,52	68393,61
672,97	68393,61
673,42	68393,61
673,87	68393,61
674,32	68393,61
674,77	68393,61
675,22	68393,61
675,67	68393,61
676,12	68393,61
676,57	68393,61
677,02	68393,61
677,47	68393,61
677,93	68393,61
678,38	68393,61
678,83	68393,61
679,28	68393,61
679,73	68393,61
680,18	68393,61
680,63	68393,61
681,08	68393,61
681,53	68393,61
681,98	68393,61
682,43	68393,61
682,88	68393,61
683,33	68393,61
683,78	68393,61
684,23	68393,61
684,68	68393,61
685,13	68393,61
685,58	68393,61
686,03	68393,61
686,48	68393,61
686,93	68393,61
687,38	68393,61
687,83	68393,61
688,28	68393,61
688,73	68393,61
689,18	68393,61
689,63	68393,61
690,08	68393,61
690,53	68393,61
690,98	68393,61
691,43	68393,61
691,88	68393,61
692,33	68393,61
692,78	68393,61
693,23	68393,61
693,68	68393,61
694,13	68393,61
694,58	68393,61
695,03	68393,61
695,48	68393,61
695,93	68393,61
696,38	68393,61
696,83	68393,61
697,28	68393,61
697,72	68393,61
698,17	68393,61
698,62	68393,61
699,07	68393,61
699,52	68393,61
699,97	68393,61
700,42	68393,61
700,87	68393,61
701,32	68393,61
701,77	68393,61
702,22	68393,61
702,67	68393,61
703,11	68393,61
703,56	68393,61
704,01	68393,61
704,46	68393,61
704,91	68393,61
705,36	68393,61
705,81	68393,61
706,26	68393,61
706,70	68393,61
707,15	68393,61
707,60	68393,61
708,05	68393,61
708,50	68393,61
708,95	68393,61
709,40	68393,61
709,84	68393,61
710,29	68393,61
710,74	68393,61
711,19	68393,61
711,64	68393,61
712,09	68393,61
712,53	68393,61
712,98	68393,61
713,43	68393,61
713,88	68393,61
714,33	68393,61
714,78	68393,61
715,22	68393,61
715,67	68393,61
716,12	68393,61
716,57	68393,61
717,02	68393,61
717,46	68393,61
717,91	68393,61
718,36	68393,61
718,81	68393,61
719,26	68393,61
719,70	68393,61
720,15	68393,61
720,60	68393,61
721,05	68393,61
721,49	68393,61
721,94	68393,61
722,39	68393,61
722,84	68393,61
723,28	68393,61
723,73	68393,61
724,18	68393,61
724,63	68393,61
725,07	68393,61
725,52	68393,61
725,97	68393,61
726,42	68393,61
726,86	68393,61
727,31	68393,61
727,76	68393,61
728,21	68393,61
728,65	68393,61
729,10	68393,61
729,55	68393,61
729,99	68393,61
730,44	68393,61
730,89	68393,61
731,33	68393,61
731,78	68393,61
732,23	68393,61
732,68	68393,61
733,12	68393,61
733,57	68393,61
734,02	68393,61
734,46	68393,61
734,91	68393,61
735,36	68393,61
735,80	68393,61
736,25	68393,61
736,70	68393,61
737,14	68393,61
737,59	68393,61
738,04	68393,61
738,48	68393,61
738,93	68393,61
739,37	68393,61
739,82	68393,61
740,27	68393,61
740,71	68393,61
741,16	68393,61
741,61	68393,61
742,05	68393,61
742,50	68393,61
742,94	68393,61
743,39	68393,61
743,84	68393,61
744,28	68393,61
744,73	68393,61
745,18	68393,61
745,62	68393,61
746,07	68393,61
746,51	68393,61
746,96	68393,61
747,40	68393,61
747,85	68393,61
748,30	68393,61
748,74	68393,61
749,19	68393,61
749,63	68393,61
750,08	68393,61
750,52	68393,61
750,97	68393,61
751,42	68393,61
751,86	68393,61
752,31	68393,61
752,75	68393,61
753,20	68393,61
753,64	68393,61
754,09	68393,61
754,53	68393,61
754,98	68393,61
755,42	68393,61
755,87	68393,61
756,31	68393,61
756,76	68393,61
757,20	68393,61
757,65	68393,61
758,09	68393,61
758,54	68393,61
758,98	68393,61
759,43	68393,61
759,87	68393,61
760,32	68393,61
760,76	68393,61
761,21	68393,61
761,65	68393,61
762,10	68393,61
762,54	68393,61
762,99	68393,61
763,43	68393,61
763,88	68393,61
764,32	68393,61
764,77	68393,61
765,21	68393,61
765,66	68393,61
766,10	68393,61
766,54	68393,61
766,99	68393,61
767,43	68393,61
767,88	68393,61
768,32	68393,61
768,77	68393,61
769,21	68393,61
769,66	68393,61
770,10	68393,61
770,54	68393,61
770,99	68393,61
771,43	68393,61
771,88	68393,61
772,32	68393,61
772,76	68393,61
773,21	68393,61
773,65	68393,61
774,10	68393,61
774,54	68393,61
774,98	68393,61
775,43	68393,61
775,87	68393,61
776,31	68393,61
776,76	68393,61
777,20	68393,61
777,65	68393,61
778,09	68393,61
778,53	68393,61
778,98	68393,61
779,42	68393,61
779,86	68393,61
780,31	68393,61
780,75	68393,61
781,19	68393,61
781,64	68393,61
782,08	68393,61
782,52	68393,61
782,97	68393,61
783,41	68393,61
783,85	68393,61
784,30	68393,61
784,74	68393,61
785,18	68393,61
785,63	68393,61
786,07	68393,61
786,51	68393,61
786,95	68393,61
787,40	68393,61
787,84	68393,61
788,28	68393,61
788,73	68393,61
789,17	68393,61
789,61	68393,61
790,05	68393,61
790,50	68393,61
790,94	68393,61
791,38	68393,61
791,82	68393,61
792,27	68393,61
792,71	68393,61
793,15	68393,61
793,59	68393,61
794,04	68393,61
794,48	68393,61
794,92	68393,61
795,36	68393,61
795,81	68393,61
796,25	68393,61
796,69	68393,61
797,13	68393,61
797,57	68393,61
798,02	68393,61
798,46	68393,61
798,90	68393,61
799,34	68393,61
799,79	68393,61
800,23	68393,61
800,67	68393,61
801,11	68393,61
801,55	68393,61
801,99	68393,61
802,44	68393,61
802,88	68393,61
803,32	68393,61
803,76	68393,61
804,20	68393,61
804,64	68393,61
805,09	68393,61
805,53	68393,61
805,97	68393,61
806,41	68393,61
806,85	68393,61
807,29	68393,61
807,74	68393,61
808,18	68393,61
808,62	68393,61
809,06	68393,61
809,50	68393,61
809,94	68393,61
810,38	68393,61
810,82	68393,61
811,27	68393,61
811,71	68393,61
812,15	68393,61
812,59	68393,61
813,03	68393,61
813,47	68393,61
813,91	68393,61
814,35	68393,61
814,79	68393,61
815,23	68393,61
815,67	68393,61
816,12	68393,61
816,56	68393,61
817,00	68393,61
817,44	68393,61
817,88	68393,61
818,32	68393,61
818,76	68393,61
819,20	68393,61
819,64	68393,61
820,08	68393,61
820,52	68393,61
820,96	68393,61
821,40	68393,61
821,84	68393,61
822,28	68393,61
822,72	68393,61
823,16	68393,61
823,60	68393,61
824,04	68393,61
824,48	68393,61
824,92	68393,61
825,36	68393,61
825,80	68393,61
826,24	68393,61
826,68	68393,61
827,12	68393,61
827,56	68393,61
828,00	68393,61
828,44	68393,61
828,88	68393,61
829,32	68393,61
829,76	68393,61
830,20	68393,61
830,64	68393,61
831,08	68393,61
831,52	68393,61
831,96	68354,86
832,40	65333,26
832,84	65902,10
833,28	65755,54
833,72	67916,34
834,16	66847,79
834,60	65429,45
835,04	64530,49
835,48	65224,34
835,91	62832,01
836,35	62061,50
836,79	60346,87
837,23	60878,83
837,67	58396,33
838,11	57813,17
838,55	58974,70
838,99	58719,89
839,43	62049,07
839,87	64508,48
840,30	61583,32
840,74	66046,67
841,18	63923,50
841,62	62510,75
842,06	60004,85
842,50	63586,14
842,94	59197,38
843,38	54631,32
843,81	53579,52
844,25	51896,40
844,69	50462,22
845,13	51334,26
845,57	50372,84
846,01	51653,41
846,45	50241,55
846,88	50165,42
847,32	51031,75
847,76	49975,68
848,20	49765,02
848,64	49394,53
849,08	49710,99
849,51	49960,24
849,95	48455,69
850,39	46966,86
850,83	48368,69
851,27	46327,33
851,70	46753,62
852,14	48666,08
852,58	45350,54
853,02	44219,82
853,46	45295,70
853,89	43351,39
854,33	45899,12
854,77	42979,94
855,21	43266,15
855,65	45063,27
856,08	45062,18
856,52	42664,41
856,96	42224,74
857,40	41145,18
857,83	39454,89
858,27	41445,61
858,71	37972,67
859,15	38864,26
859,58	39284,67
860,02	39549,25
860,46	40147,24
860,89	40687,27
861,33	39111,26
861,77	39560,09
862,21	39130,77
862,64	38018,07
863,08	37666,84
863,52	38541,62
863,95	36281,76
864,39	36623,34
864,83	36460,60
865,27	35168,24
865,70	36553,28
866,14	34682,77
866,58	37233,84
867,01	35397,18
867,45	36388,41
867,89	35647,75
868,32	35009,22
868,76	35983,49
869,20	35177,91
869,63	36288,22
870,07	37084,91
870,51	32193,42
870,94	32798,23
871,38	32621,83
871,82	31787,79
872,25	32745,84
872,69	33039,94
873,13	32386,74
873,56	33986,58
874,00	33834,39
874,43	32310,90
874,87	31460,34
875,31	33854,75
875,74	30805,06
876,18	32378,20
876,61	31284,45
877,05	31191,73
877,49	30992,50
877,92	30543,20
878,36	30511,28
878,79	29799,93
879,23	31848,61
879,67	28964,51
880,10	28633,73
880,54	29086,49
880,97	29938,08
881,41	30946,70
881,84	29712,82
882,28	29937,02
882,72	29633,15
883,15	29623,60
883,59	28693,09
884,02	29832,87
884,46	29310,39
884,89	29275,36
885,33	29572,62
885,76	27825,82
886,20	27245,41
886,63	30131,55
887,07	26941,23
887,50	26701,63
887,94	27622,75
888,37	27344,73
888,81	31410,23
889,24	26469,54
889,68	28933,76
890,11	27195,75
890,55	28364,62
890,98	28278,84
891,42	26392,56
891,85	26562,36
892,29	26886,33
892,72	25817,21
893,16	26083,71
893,59	26693,19
894,03	25947,80
894,46	26998,25
894,90	25258,41
895,33	25012,40
895,77	26162,74
896,20	26718,51
896,63	25337,29
897,07	25058,65
897,50	25102,80
897,94	26465,32
898,37	27493,76
898,81	25085,98
899,24	25087,03
899,68	25010,30
900,11	26673,14
900,54	25996,26
900,98	24680,42
901,41	27035,20
901,85	27477,90
902,28	23873,67
902,71	24008,88
903,15	26779,72
903,58	24345,56
904,02	25160,62
904,45	24024,61
904,88	24151,49
905,32	23404,43
905,75	26227,04
906,18	24553,37
906,62	25806,68
907,05	24862,14
907,48	24231,20
907,92	25284,70
908,35	26266,04
908,79	23950,18
909,22	23052,88
909,65	24447,35
910,09	25234,22
910,52	26391,50
910,95	27625,92
911,38	26307,15
911,82	30046,50
912,25	30635,79
912,68	26903,22
913,12	25492,99
913,55	24050,82
913,98	23045,56
914,42	23099,94
914,85	23409,66
915,28	22912,77
915,72	24308,84
916,15	22470,82
916,58	24107,44
917,01	22408,17
917,45	23986,87
917,88	22095,10
918,31	22665,08
918,74	22400,86
919,18	23383,50
919,61	23811,84
920,04	22878,27
920,47	25919,36
920,91	24855,83
921,34	23364,66
921,77	23043,47
922,20	24013,08
922,64	24038,24
923,07	24935,69
923,50	23435,83
923,93	21155,42
924,37	22775,84
924,80	21282,37
925,23	22993,27
925,66	24661,52
926,09	21665,59
926,53	22609,72
926,96	20583,66
927,39	24534,47
927,82	21827,11
928,25	20732,23
928,69	22822,87
929,12	21273,01
929,55	22124,31
929,98	22742,40
930,41	21085,72
930,84	22197,34
931,28	19760,95
931,71	23767,83
932,14	22492,74
932,57	24690,92
933,00	20817,45
933,43	22483,35
933,86	22319,44
934,30	21888,62
934,73	21357,32
935,16	19705,00
935,59	20427,89
936,02	19786,86
936,45	21160,62
936,88	19602,45
937,31	21457,27
937,75	19940,27
938,18	20009,74
938,61	21154,38
939,04	19389,16
939,47	20235,87
939,90	21379,18
940,33	23130,28
940,76	19475,08
941,19	21335,46
941,62	19248,42
942,05	19723,65
942,48	20885,02
942,91	18955,74
943,35	18735,64
943,78	20861,11
944,21	20602,36
944,64	20472,54
945,07	20083,37
945,50	20290,87
945,93	20153,91
946,36	21579,12
946,79	19865,63
947,22	20231,72
947,65	20434,12
948,08	18808,99
948,51	18719,11
948,94	18951,61
949,37	23302,91
949,80	21300,07
950,23	19574,49
950,66	19178,07
951,09	20250,40
951,52	18457,87
951,95	20941,16
952,38	19388,12
952,81	22459,33
953,24	18772,83
953,67	19209,10
954,10	19510,28
954,53	19187,38
954,96	19500,96
955,39	20586,78
955,82	18927,84
956,25	20532,77
956,68	23475,62
957,11	18719,11
957,53	20365,60
957,96	19967,22
958,39	19261,87
958,82	19147,04
959,25	18983,66
959,68	17893,77
960,11	19669,78
960,54	20299,18
960,97	20118,64
961,40	21011,88
961,83	20705,21
962,26	19264,97
962,68	20260,78
963,11	19707,07
963,54	20611,71
963,97	20835,12
964,40	19596,24
964,83	22149,35
965,26	21112,77
965,69	20419,59
966,11	20842,40
966,54	19008,47
966,97	19064,30
967,40	20753,02
967,83	24940,94
968,26	20407,13
968,69	19518,57
969,11	19977,59
969,54	18632,35
969,97	18959,88
970,40	20280,49
970,83	19185,31
971,26	19608,66
971,68	18454,77
972,11	18794,52
972,54	19119,11
972,97	20114,49
973,40	19217,38
973,82	20243,14
974,25	19690,50
974,68	18936,10
975,11	18827,59
975,54	18549,74
975,96	19555,85
976,39	18509,48
976,82	20210,97
977,25	19641,81
977,67	19304,29
978,10	19451,27
978,53	19021,91
978,96	20602,36
979,38	19923,68
979,81	18676,76
980,24	19586,91
980,67	20573,28
981,09	19307,40
981,52	19382,95
981,95	18926,80
982,38	19157,38
982,80	18473,35
983,23	20657,42
983,66	20003,51
984,08	18269,04
984,51	17367,68
984,94	19048,79
985,37	19636,63
985,79	18797,62
986,22	18268,01
986,65	19615,91
987,07	19060,17
987,50	19271,18
987,93	19099,46
988,35	19345,69
988,78	19118,08
989,21	18561,10
989,63	19768,21
990,06	18939,21
990,49	19735,05
990,91	21385,43
991,34	18670,56
991,77	18092,69
992,19	18875,12
992,62	18516,71
993,05	18777,99
993,47	19663,56
993,90	19669,78
994,32	19365,35
994,75	19055,00
995,18	17531,28
995,60	17899,95
996,03	17430,43
996,45	20265,97
996,88	19897,76
997,31	18491,93
997,73	19363,28
998,16	18237,06
998,58	20984,84
999,01	19084,99
999,44	19013,64
999,86	20801,86
1000,29	18252,53
1000,71	19351,90
1001,14	19901,91
1001,56	19236,00
1001,99	19437,81
1002,41	19018,81
1002,84	19842,82
1003,27	18188,59
1003,69	19719,51
1004,12	19630,42
1004,54	20913,09
1004,97	19341,55
1005,39	18219,53
1005,82	19972,41
1006,24	19577,59
1006,67	19077,75
1007,09	18504,32
1007,52	19660,46
1007,94	19494,75
1008,37	24866,34
1008,79	21643,71
1009,22	21712,47
1009,64	21210,57
1010,07	21830,24
1010,49	23300,81
1010,92	23770,97
1011,34	28974,06
1011,77	28225,89
1012,19	26279,74
1012,62	30087,96
1013,04	33714,39
1013,46	30932,85
1013,89	23457,82
1014,31	23633,74
1014,74	21114,85
1015,16	21115,89
1015,59	19943,38
1016,01	21151,26
1016,44	19917,46
1016,86	42164,77
1017,28	19658,38
1017,71	18367,05
1018,13	23324,88
1018,56	20994,20
1018,98	20332,39
1019,40	18892,69
1019,83	19323,95
1020,25	19956,85
1020,68	19737,12
1021,10	19779,61
1021,52	19219,45
1021,95	23963,81
1022,37	20497,46
1022,79	20280,49
1023,22	19867,70
1023,64	19263,94
1024,07	19411,93
1024,49	19758,88
1024,91	18090,63
1025,34	18239,12
1025,76	21825,03
1026,18	19722,62
1026,61	19422,28
1027,03	19134,63
1027,45	19260,83
1027,88	18204,06
1028,30	21831,28
1028,72	19042,59
1029,15	18826,55
1029,57	19266,01
1029,99	20703,14
1030,41	17684,67
1030,84	18988,83
1031,26	19725,72
1031,68	18284,51
1032,11	20222,38
1032,53	18062,79
1032,95	17980,33
1033,37	19264,97
1033,80	19780,64
1034,22	18335,06
1034,64	21271,97
1035,06	18167,96
1035,49	18421,74
1035,91	18980,56
1036,33	17422,20
1036,75	19764,06
1037,18	19916,42
1037,60	19510,28
1038,02	20021,14
1038,44	20816,41
1038,87	18516,71
1039,29	18515,67
1039,71	19051,89
1040,13	18290,70
1040,55	20444,51
1040,98	20275,31
1041,40	19766,13
1041,82	19930,94
1042,24	18743,90
1042,66	19806,55
1043,09	17729,98
1043,51	18552,84
1043,93	18178,27
1044,35	17433,52
1044,77	18702,58
1045,20	19452,30
1045,62	17932,92
1046,04	19169,79
1046,46	19623,16
1046,88	17846,37
1047,30	19920,57
1047,72	19588,99
1048,15	19827,28
1048,57	18603,43
1048,99	18658,17
1049,41	19332,23
1049,83	19853,19
1050,25	21256,36
1050,67	20252,48
1051,09	18767,66
1051,52	19219,45
1051,94	16595,04
1052,36	18881,33
1052,78	16905,11
1053,20	18369,11
1053,62	17938,07
1054,04	18983,66
1054,46	19263,94
1054,88	21106,53
1055,30	20196,44
1055,72	19786,86
1056,14	19190,48
1056,57	23930,26
1056,99	17879,34
1057,41	19231,86
1057,83	19391,23
1058,25	18273,16
1058,67	18460,96
1059,09	18076,19
1059,51	19826,24
1059,93	18978,49
1060,35	18447,55
1060,77	19533,06
1061,19	20159,09
1061,61	18977,45
1062,03	18463,03
1062,45	18027,74
1062,87	19621,09
1063,29	19622,13
1063,71	18410,39
1064,13	17766,03
1064,55	17242,20
1064,97	19901,91
1065,39	18720,14
1065,81	18564,20
1066,23	18910,26
1066,65	18198,90
1067,07	21152,30
1067,49	18763,53
1067,91	18092,69
1068,33	17382,08
1068,75	19832,46
1069,17	19957,89
1069,59	19699,82
1070,00	18430,00
1070,42	19312,57
1070,84	18161,77
1071,26	17562,16
1071,68	17577,60
1072,10	19435,74
1072,52	18304,11
1072,94	17372,82
1073,36	18007,13
1073,78	18298,95
1074,20	18857,56
1074,62	17849,46
1075,03	17819,59
1075,45	18437,22
1075,87	19638,70
1076,29	18035,99
1076,71	19494,75
1077,13	20614,83
1077,55	16829,10
1077,97	18791,42
1078,38	18095,78
1078,80	18407,30
1079,22	19198,76
1079,64	18501,22
1080,06	18295,86
1080,48	18979,52
1080,89	18401,10
1081,31	18260,78
1081,73	18609,63
1082,15	18632,35
1082,57	19849,04
1082,99	18528,06
1083,40	18275,23
1083,82	20255,59
1084,24	17722,77
1084,66	18180,33
1085,08	19027,08
1085,49	17012,98
1085,91	19153,24
1086,33	38117,55
1086,75	19285,67
1087,17	17930,86
1087,58	17993,73
1088,00	18031,86
1088,42	19718,47
1088,84	18402,14
1089,25	17423,23
1089,67	18071,04
1090,09	18161,77
1090,51	17750,58
1090,92	18349,51
1091,34	17979,30
1091,76	18467,16
1092,18	18172,08
1092,59	18367,05
1093,01	18232,93
1093,43	18583,81
1093,84	17728,95
1094,26	18388,72
1094,68	18947,48
1095,10	17405,74
1095,51	18192,71
1095,93	17869,04
1096,35	19176,00
1096,76	18986,76
1097,18	18885,46
1097,60	18380,46
1098,01	18047,33
1098,43	17673,34
1098,85	18110,22
1099,26	17926,74
1099,68	18460,96
1100,10	17293,62
1100,51	17883,46
1100,93	18074,13
1101,35	18372,21
1101,76	18624,09
1102,18	26864,16
1102,60	20005,59
1103,01	16359,11
1103,43	18335,06
1103,84	17974,14
1104,26	17629,07
1104,68	18228,81
1105,09	16269,90
1105,51	16957,50
1105,92	19318,78
1106,34	16692,55
1106,76	18671,59
1107,17	18456,83
1107,59	18515,67
1108,00	16432,95
1108,42	17909,22
1108,83	16700,76
1109,25	17523,05
1109,67	16691,52
1110,08	16810,62
1110,50	16379,61
1110,91	17501,43
1111,33	16819,86
1111,74	16692,55
1112,16	17958,69
1112,57	18233,97
1112,99	17020,17
1113,41	17498,35
1113,82	17177,43
1114,24	17795,90
1114,65	17452,04
1115,07	16685,36
1115,48	16280,16
1115,90	1881,69
1116,31	2216,93
1116,73	2177,02
1117,14	2182,01
>>>>>End Processed Spectral Data<<<<<
