SpectraSuite Data File
++++++++++++++++++++++++++++++++++++
Date: Wed Jul 27 14:31:27 EEST 2016
User: OO Maya
Dark Spectrum Present: No
Reference Spectrum Present: No
Number of Sampled Component Spectra: 1
Spectrometers: MAYP11278
Integration Time (usec): 15000000 (MAYP11278)
Spectra Averaged: 1 (MAYP11278)
Boxcar Smoothing: 0 (MAYP11278)
Correct for Electrical Dark: No (MAYP11278)
Strobe/Lamp Enabled: No (MAYP11278)
Correct for Detector Non-linearity: Yes (MAYP11278)
Correct for Stray Light: No (MAYP11278)
Number of Pixels in Processed Spectrum: 2068
>>>>>Begin Processed Spectral Data<<<<<
187,82	2358,61
188,30	2278,79
188,78	2246,86
189,26	2253,85
189,73	18101,97
190,21	20038,77
190,69	20628,33
191,17	21181,43
191,64	22392,51
192,12	21329,21
192,60	20738,47
193,07	20120,71
193,55	21471,85
194,03	20978,60
194,51	21745,82
194,98	20974,44
195,46	22671,35
195,94	20763,41
196,42	21341,70
196,89	24457,85
197,37	21196,00
197,85	20344,84
198,32	20933,89
198,80	20311,63
199,28	21783,34
199,76	22305,87
200,23	20953,64
200,71	21123,17
201,19	22127,44
201,66	22359,10
202,14	22143,09
202,62	20149,76
203,09	21577,04
203,57	20493,31
204,05	22483,35
204,53	23105,17
205,00	20740,54
205,48	20824,73
205,96	23102,03
206,43	20992,12
206,91	21929,28
207,39	24635,26
207,86	21712,47
208,34	22176,47
208,82	21294,86
209,29	22421,74
209,77	22118,05
210,25	21377,10
210,72	21346,91
211,20	21989,76
211,68	21539,54
212,15	20839,28
212,63	23792,98
213,11	22160,82
213,58	21158,54
214,06	23511,22
214,53	21861,51
215,01	23456,77
215,49	22146,22
215,96	22302,74
216,44	22302,74
216,92	22391,47
217,39	20896,46
217,87	21511,42
218,35	23185,72
218,82	20076,11
219,30	20788,35
219,77	21051,40
220,25	21823,99
220,73	24474,64
221,20	21012,92
221,68	22735,09
222,15	20828,89
222,63	22828,10
223,11	21250,11
223,58	22770,62
224,06	21429,15
224,53	21006,68
225,01	20855,91
225,49	21605,16
225,96	20920,37
226,44	21749,99
226,91	22882,45
227,39	21568,70
227,87	23120,86
228,34	22428,01
228,82	22341,36
229,29	21497,88
229,77	21638,50
230,24	21327,13
230,72	22769,57
231,20	22566,89
231,67	21727,06
232,15	22058,59
232,62	20834,08
233,10	22224,47
233,57	22114,92
234,05	26058,42
234,53	22296,48
235,00	21280,29
235,48	20917,25
235,95	20428,93
236,43	22991,18
236,90	24359,20
237,38	21307,35
237,85	22081,54
238,33	22037,73
238,80	22156,65
239,28	21736,44
239,75	20518,23
240,23	22547,05
240,71	23450,49
241,18	22266,21
241,66	21797,93
242,13	22922,18
242,61	23208,74
243,08	20634,56
243,56	20811,22
244,03	22857,36
244,51	23577,19
244,98	21554,12
245,46	23645,26
245,93	68393,61
246,41	20552,50
246,88	22304,83
247,36	21894,87
247,83	22072,15
248,31	22329,88
248,78	20314,74
249,26	22038,77
249,73	22810,33
250,21	22135,78
250,68	23752,11
251,16	21962,65
251,63	24632,11
252,10	23697,64
252,58	21424,99
253,05	23554,15
253,53	22204,64
254,00	21843,79
254,48	22113,88
254,95	22282,91
255,43	22987,00
255,90	21391,67
256,38	22343,45
256,85	22868,86
257,33	23198,27
257,80	25942,54
258,27	22514,67
258,75	21453,10
259,22	22490,66
259,70	22781,07
260,17	24073,89
260,65	22087,80
261,12	21633,29
261,59	23411,76
262,07	21409,37
262,54	22688,07
263,02	22030,43
263,49	20842,40
263,97	23141,78
264,44	23526,92
264,91	21715,60
265,39	22492,74
265,86	22841,69
266,34	23086,35
266,81	21827,11
267,28	21973,07
267,76	22542,87
268,23	22788,38
268,71	20562,89
269,18	21328,17
269,65	21751,03
270,13	22999,55
270,60	23868,42
271,08	22124,31
271,55	22409,21
272,02	21083,64
272,50	21364,60
272,97	20390,52
273,44	22406,08
273,92	26954,95
274,39	23192,00
274,87	23534,25
275,34	21976,20
275,81	22163,95
276,29	22971,31
276,76	23616,98
277,23	21172,07
277,71	22353,88
278,18	21520,79
278,65	27630,15
279,13	22276,65
279,60	22107,62
280,07	27318,31
280,55	23871,57
281,02	26616,16
281,50	22121,18
281,97	23929,21
282,44	22277,69
282,91	22512,58
283,39	23336,40
283,86	21794,80
284,33	21621,83
284,81	23622,22
285,28	22783,16
285,75	23314,42
286,23	22964,00
286,70	21407,29
287,17	23475,62
287,65	25052,34
288,12	22630,61
288,59	23689,26
289,07	21048,28
289,54	24742,38
290,01	22209,86
290,48	23474,57
290,96	22348,67
291,43	23487,13
291,90	25874,07
292,38	22357,02
292,85	24219,67
293,32	22385,20
293,79	23616,98
294,27	23499,70
294,74	22542,87
295,21	22807,19
295,69	23291,40
296,16	25436,18
296,63	25177,44
297,10	23952,28
297,58	23598,13
298,05	23556,24
298,52	22562,71
298,99	24996,64
299,47	22775,84
299,94	23662,02
300,41	22399,82
300,88	24270,02
301,36	24167,22
301,83	24238,55
302,30	22004,36
302,77	23804,50
303,25	23842,23
303,72	21987,67
304,19	22625,39
304,66	22148,30
305,13	23256,87
305,61	23457,82
306,08	23157,47
306,55	23852,71
307,02	22577,34
307,49	22584,65
307,97	23366,75
308,44	22603,45
308,91	24039,29
309,38	24240,65
309,86	23143,87
310,33	22878,27
310,80	23343,72
311,27	22207,77
311,74	24120,03
312,21	22771,66
312,69	25005,05
313,16	22192,12
313,63	22488,57
314,10	23209,78
314,57	22750,76
315,05	22824,96
315,52	25015,56
315,99	24994,54
316,46	25143,80
316,93	26453,72
317,40	26264,99
317,88	30222,99
318,35	27574,11
318,82	27933,74
319,29	27279,22
319,76	29734,07
320,23	32356,83
320,70	31817,67
321,18	30327,22
321,65	29598,11
322,12	30347,43
322,59	33690,82
323,06	31408,10
323,53	34531,43
324,00	30072,01
324,48	31858,22
324,95	31416,63
325,42	30940,31
325,89	31377,19
326,36	31678,97
326,83	33030,31
327,30	33241,10
327,77	33248,59
328,24	32685,97
328,72	32216,91
329,19	31555,25
329,66	31240,75
330,13	30563,42
330,60	31869,96
331,07	31118,21
331,54	32107,99
332,01	29354,97
332,48	32766,15
332,95	31773,92
333,43	31694,98
333,90	33313,88
334,37	32254,29
334,84	32740,49
335,31	36667,53
335,78	30596,41
336,25	31460,34
336,72	30710,31
337,19	30765,67
337,66	30008,23
338,13	29870,06
338,60	31776,06
339,07	30983,97
339,54	28480,09
340,01	28489,62
340,49	28161,31
340,96	29810,56
341,43	30541,07
341,90	28552,14
342,37	29483,42
342,84	29900,88
343,31	29169,25
343,78	28244,95
344,25	28522,47
344,72	27746,49
345,19	28382,63
345,66	28918,91
346,13	27776,10
346,60	27111,25
347,07	30070,95
347,54	27274,99
348,01	29232,91
348,48	27993,00
348,95	26205,96
349,42	27660,82
349,89	28615,72
350,36	27556,14
350,83	26262,88
351,30	27711,58
351,77	29588,55
352,24	27821,59
352,71	26802,94
353,18	27267,59
353,65	27628,04
354,12	27134,48
354,59	27760,24
355,06	27278,16
355,53	28730,19
356,00	25995,21
356,47	28437,71
356,94	25657,17
357,41	30357,01
357,88	27297,18
358,35	24968,26
358,82	25459,32
359,28	25641,38
359,75	25678,23
360,22	27421,88
360,69	28125,31
361,16	25734,02
361,63	26227,04
362,10	26107,95
362,57	26432,63
363,04	27576,22
363,51	32279,92
363,98	33181,17
364,45	39910,56
364,92	45614,89
365,39	33499,10
365,86	28135,90
366,32	28017,35
366,79	26202,80
367,26	48401,73
367,73	23711,25
368,20	24281,56
368,67	26235,47
369,14	24143,10
369,61	26220,71
370,08	25470,90
370,55	24824,32
371,02	34603,33
371,48	25584,55
371,95	24241,69
372,42	23254,77
372,89	23831,75
373,36	24901,01
373,83	23366,75
374,30	24006,79
374,77	25274,19
375,23	23013,14
375,70	26602,45
376,17	24176,66
376,64	23341,63
377,11	23396,06
377,58	25120,67
378,05	24662,57
378,51	24289,95
378,98	24688,82
379,45	24437,91
379,92	25185,86
380,39	27918,93
380,86	24535,52
381,33	26318,75
381,79	26122,70
382,26	23061,25
382,73	24807,51
383,20	24053,97
383,67	25587,70
384,14	24265,82
384,60	31312,16
385,07	24506,13
385,54	23920,83
386,01	24050,82
386,48	26592,95
386,94	23501,79
387,41	23186,77
387,88	25557,18
388,35	24832,72
388,82	25981,51
389,28	23852,71
389,75	25491,94
390,22	25155,36
390,69	25302,58
391,16	24936,74
391,62	24786,50
392,09	25116,47
392,56	24581,72
393,03	24457,85
393,50	28097,79
393,96	24843,23
394,43	26477,98
394,90	23991,06
395,37	26330,35
395,83	31726,98
396,30	24088,57
396,77	26345,11
397,24	26767,06
397,70	24728,73
398,17	25941,48
398,64	25703,49
399,11	25549,82
399,57	28429,24
400,04	25647,70
400,51	27296,12
400,98	27594,20
401,44	28899,82
401,91	30130,48
402,38	32658,18
402,84	39821,56
403,31	57088,69
403,78	68393,61
404,25	68393,61
404,71	68393,61
405,18	49803,62
405,65	37739,23
406,12	39310,69
406,58	40467,71
407,05	44665,49
407,52	45631,35
407,98	45012,85
408,45	45620,38
408,92	45416,34
409,38	50104,75
409,85	50663,07
410,32	55989,44
410,78	56954,53
411,25	62653,67
411,72	64697,50
412,18	67602,55
412,65	68393,61
413,12	68393,61
413,59	68393,61
414,05	68393,61
414,52	68393,61
414,98	68393,61
415,45	68393,61
415,92	68393,61
416,38	68393,61
416,85	68393,61
417,32	68393,61
417,78	68393,61
418,25	68393,61
418,72	68393,61
419,18	68393,61
419,65	68393,61
420,12	68393,61
420,58	68393,61
421,05	68393,61
421,51	68393,61
421,98	68393,61
422,45	68393,61
422,91	68393,61
423,38	68393,61
423,85	68393,61
424,31	68393,61
424,78	68393,61
425,24	68393,61
425,71	68393,61
426,18	68393,61
426,64	68393,61
427,11	68393,61
427,57	68393,61
428,04	68393,61
428,51	68393,61
428,97	68393,61
429,44	68393,61
429,90	68393,61
430,37	68393,61
430,83	68393,61
431,30	68393,61
431,77	68393,61
432,23	68393,61
432,70	68393,61
433,16	68393,61
433,63	68393,61
434,09	68393,61
434,56	68393,61
435,03	68393,61
435,49	68393,61
435,96	68393,61
436,42	68393,61
436,89	68393,61
437,35	68393,61
437,82	68393,61
438,28	68393,61
438,75	68393,61
439,21	68393,61
439,68	68393,61
440,14	68393,61
440,61	68393,61
441,07	68393,61
441,54	68393,61
442,00	68393,61
442,47	68393,61
442,94	68393,61
443,40	68393,61
443,87	68393,61
444,33	68393,61
444,80	68393,61
445,26	68393,61
445,73	68393,61
446,19	68393,61
446,65	68393,61
447,12	68393,61
447,58	68393,61
448,05	68393,61
448,51	68393,61
448,98	68393,61
449,44	68393,61
449,91	68393,61
450,37	68393,61
450,84	68393,61
451,30	68393,61
451,77	68393,61
452,23	68393,61
452,70	68393,61
453,16	68393,61
453,62	68393,61
454,09	68393,61
454,55	68393,61
455,02	68393,61
455,48	68393,61
455,95	68393,61
456,41	68393,61
456,88	68393,61
457,34	68393,61
457,80	68393,61
458,27	68393,61
458,73	68393,61
459,20	68393,61
459,66	68393,61
460,13	68393,61
460,59	68393,61
461,05	68393,61
461,52	68393,61
461,98	68393,61
462,45	68393,61
462,91	68393,61
463,37	68393,61
463,84	68393,61
464,30	68393,61
464,76	68393,61
465,23	68393,61
465,69	68393,61
466,16	68393,61
466,62	68393,61
467,08	68393,61
467,55	68393,61
468,01	68393,61
468,48	68393,61
468,94	68393,61
469,40	68393,61
469,87	68393,61
470,33	68393,61
470,79	68393,61
471,26	68393,61
471,72	68393,61
472,18	68393,61
472,65	68393,61
473,11	68393,61
473,57	68393,61
474,04	68393,61
474,50	68393,61
474,96	68393,61
475,43	68393,61
475,89	68393,61
476,35	68393,61
476,82	68393,61
477,28	68393,61
477,74	68393,61
478,21	68393,61
478,67	68393,61
479,13	68393,61
479,59	68393,61
480,06	68393,61
480,52	68393,61
480,98	68393,61
481,45	68393,61
481,91	68393,61
482,37	68393,61
482,84	68393,61
483,30	68393,61
483,76	68393,61
484,22	68393,61
484,69	68393,61
485,15	68393,61
485,61	68393,61
486,07	68393,61
486,54	68393,61
487,00	68393,61
487,46	68393,61
487,92	68393,61
488,39	68393,61
488,85	68393,61
489,31	68393,61
489,77	68393,61
490,24	68393,61
490,70	68393,61
491,16	68393,61
491,62	68393,61
492,09	68393,61
492,55	68393,61
493,01	68393,61
493,47	68393,61
493,94	68393,61
494,40	68393,61
494,86	68393,61
495,32	68393,61
495,78	68393,61
496,25	68393,61
496,71	68393,61
497,17	68393,61
497,63	68393,61
498,09	68393,61
498,56	68393,61
499,02	68393,61
499,48	68393,61
499,94	68393,61
500,40	68393,61
500,87	68393,61
501,33	68393,61
501,79	68393,61
502,25	68393,61
502,71	68393,61
503,17	68393,61
503,64	68393,61
504,10	68393,61
504,56	68393,61
505,02	68393,61
505,48	68393,61
505,94	68393,61
506,40	68393,61
506,87	68393,61
507,33	68393,61
507,79	68393,61
508,25	68393,61
508,71	68393,61
509,17	68393,61
509,63	68393,61
510,10	68393,61
510,56	68393,61
511,02	68393,61
511,48	68393,61
511,94	68393,61
512,40	68393,61
512,86	68393,61
513,32	68393,61
513,78	68393,61
514,25	68393,61
514,71	68393,61
515,17	68393,61
515,63	68393,61
516,09	68393,61
516,55	68393,61
517,01	68393,61
517,47	68393,61
517,93	68393,61
518,39	68393,61
518,85	68393,61
519,32	68393,61
519,78	68393,61
520,24	68393,61
520,70	68393,61
521,16	68393,61
521,62	68393,61
522,08	68393,61
522,54	68393,61
523,00	68393,61
523,46	68393,61
523,92	68393,61
524,38	68393,61
524,84	68393,61
525,30	68393,61
525,76	68393,61
526,22	68393,61
526,68	68393,61
527,14	68393,61
527,60	68393,61
528,06	68393,61
528,52	68393,61
528,98	68393,61
529,44	68393,61
529,90	68393,61
530,36	68393,61
530,82	68393,61
531,28	68393,61
531,74	68393,61
532,20	68393,61
532,66	68393,61
533,12	68393,61
533,58	68393,61
534,04	68393,61
534,50	68393,61
534,96	68393,61
535,42	68393,61
535,88	68393,61
536,34	68393,61
536,80	68393,61
537,26	68393,61
537,72	68393,61
538,18	68393,61
538,64	68393,61
539,10	68393,61
539,56	68393,61
540,02	68393,61
540,48	68393,61
540,94	68393,61
541,40	68393,61
541,86	68393,61
542,32	68393,61
542,78	68393,61
543,24	68393,61
543,69	68393,61
544,15	68393,61
544,61	68393,61
545,07	68393,61
545,53	68393,61
545,99	68393,61
546,45	68393,61
546,91	68393,61
547,37	68393,61
547,83	68393,61
548,29	68393,61
548,74	68393,61
549,20	68393,61
549,66	68393,61
550,12	68393,61
550,58	68393,61
551,04	68393,61
551,50	68393,61
551,96	68393,61
552,42	68393,61
552,87	68393,61
553,33	68393,61
553,79	68393,61
554,25	68393,61
554,71	68393,61
555,17	68393,61
555,63	68393,61
556,08	68393,61
556,54	68393,61
557,00	68393,61
557,46	68393,61
557,92	68393,61
558,38	68393,61
558,83	68393,61
559,29	68393,61
559,75	68393,61
560,21	68393,61
560,67	68393,61
561,13	68393,61
561,58	68393,61
562,04	68393,61
562,50	68393,61
562,96	68393,61
563,42	68393,61
563,87	68393,61
564,33	68393,61
564,79	68393,61
565,25	68393,61
565,71	68393,61
566,16	68393,61
566,62	68393,61
567,08	68393,61
567,54	68393,61
568,00	68393,61
568,45	68393,61
568,91	68393,61
569,37	68393,61
569,83	68393,61
570,28	68393,61
570,74	68393,61
571,20	68393,61
571,66	68393,61
572,11	68393,61
572,57	68393,61
573,03	68393,61
573,49	68393,61
573,94	68393,61
574,40	68393,61
574,86	68393,61
575,32	68393,61
575,77	68393,61
576,23	68393,61
576,69	68393,61
577,15	68393,61
577,60	68393,61
578,06	68393,61
578,52	68393,61
578,97	68393,61
579,43	68393,61
579,89	68393,61
580,34	68393,61
580,80	68393,61
581,26	68393,61
581,72	68393,61
582,17	68393,61
582,63	68393,61
583,09	68393,61
583,54	68393,61
584,00	68393,61
584,46	68393,61
584,91	68393,61
585,37	68393,61
585,83	68393,61
586,28	68393,61
586,74	68393,61
587,20	68393,61
587,65	68393,61
588,11	68393,61
588,57	68393,61
589,02	68393,61
589,48	68393,61
589,94	68393,61
590,39	68393,61
590,85	68393,61
591,30	68393,61
591,76	68393,61
592,22	68393,61
592,67	68393,61
593,13	68393,61
593,59	68393,61
594,04	68393,61
594,50	68393,61
594,95	68393,61
595,41	68393,61
595,87	68393,61
596,32	68393,61
596,78	68393,61
597,23	68393,61
597,69	68393,61
598,15	68393,61
598,60	68393,61
599,06	68393,61
599,51	68393,61
599,97	68393,61
600,43	68393,61
600,88	68393,61
601,34	68393,61
601,79	68393,61
602,25	68393,61
602,70	68393,61
603,16	68393,61
603,61	68393,61
604,07	68393,61
604,53	68393,61
604,98	68393,61
605,44	68393,61
605,89	68393,61
606,35	68393,61
606,80	68393,61
607,26	68393,61
607,71	68393,61
608,17	68393,61
608,62	68393,61
609,08	68393,61
609,53	68393,61
609,99	68393,61
610,44	68393,61
610,90	68393,61
611,35	68393,61
611,81	68393,61
612,26	68393,61
612,72	68393,61
613,17	68393,61
613,63	68393,61
614,08	68393,61
614,54	68393,61
614,99	68393,61
615,45	68393,61
615,90	68393,61
616,36	68393,61
616,81	68393,61
617,27	68393,61
617,72	68393,61
618,18	68393,61
618,63	68393,61
619,09	68393,61
619,54	68393,61
619,99	68393,61
620,45	68393,61
620,90	68393,61
621,36	68393,61
621,81	68393,61
622,27	68393,61
622,72	68393,61
623,18	68393,61
623,63	68393,61
624,08	68393,61
624,54	68393,61
624,99	68393,61
625,45	68393,61
625,90	68393,61
626,35	68393,61
626,81	68393,61
627,26	68393,61
627,72	68393,61
628,17	68393,61
628,62	68393,61
629,08	68393,61
629,53	68393,61
629,99	68393,61
630,44	68393,61
630,89	68393,61
631,35	68393,61
631,80	68393,61
632,26	68393,61
632,71	68393,61
633,16	68393,61
633,62	68393,61
634,07	68393,61
634,52	68393,61
634,98	68393,61
635,43	68393,61
635,88	68393,61
636,34	68393,61
636,79	68393,61
637,24	68393,61
637,70	68393,61
638,15	68393,61
638,60	68393,61
639,06	68393,61
639,51	68393,61
639,96	68393,61
640,42	68393,61
640,87	68393,61
641,32	68393,61
641,78	68393,61
642,23	68393,61
642,68	68393,61
643,14	68393,61
643,59	68393,61
644,04	68393,61
644,49	68393,61
644,95	68393,61
645,40	68393,61
645,85	68393,61
646,31	68393,61
646,76	68393,61
647,21	68393,61
647,66	68393,61
648,12	68393,61
648,57	68393,61
649,02	68393,61
649,47	68393,61
649,93	68393,61
650,38	68393,61
650,83	68393,61
651,28	68393,61
651,74	68393,61
652,19	68393,61
652,64	68393,61
653,09	68393,61
653,55	68393,61
654,00	68393,61
654,45	68393,61
654,90	68393,61
655,35	68393,61
655,81	68393,61
656,26	68393,61
656,71	68393,61
657,16	68393,61
657,62	68393,61
658,07	68393,61
658,52	68393,61
658,97	68393,61
659,42	68393,61
659,88	68393,61
660,33	68393,61
660,78	68393,61
661,23	68393,61
661,68	68393,61
662,13	68393,61
662,59	68393,61
663,04	68393,61
663,49	68393,61
663,94	68393,61
664,39	68393,61
664,84	68393,61
665,30	68393,61
665,75	68393,61
666,20	68393,61
666,65	68393,61
667,10	68393,61
667,55	68393,61
668,00	68393,61
668,46	68393,61
668,91	68393,61
669,36	68393,61
669,81	68393,61
670,26	68393,61
670,71	68393,61
671,16	68393,61
671,61	68393,61
672,06	68393,61
672,52	68393,61
672,97	68393,61
673,42	68393,61
673,87	68393,61
674,32	68393,61
674,77	68393,61
675,22	68393,61
675,67	68393,61
676,12	68393,61
676,57	68393,61
677,02	68393,61
677,47	68393,61
677,93	68393,61
678,38	68393,61
678,83	68393,61
679,28	68393,61
679,73	68393,61
680,18	68393,61
680,63	68393,61
681,08	68393,61
681,53	68393,61
681,98	68393,61
682,43	68393,61
682,88	68393,61
683,33	68393,61
683,78	68393,61
684,23	68393,61
684,68	68393,61
685,13	68393,61
685,58	68393,61
686,03	68393,61
686,48	68393,61
686,93	68393,61
687,38	68393,61
687,83	68393,61
688,28	68393,61
688,73	68393,61
689,18	68393,61
689,63	68393,61
690,08	68393,61
690,53	68393,61
690,98	68393,61
691,43	68393,61
691,88	68393,61
692,33	68393,61
692,78	68393,61
693,23	68393,61
693,68	68393,61
694,13	68393,61
694,58	68393,61
695,03	68393,61
695,48	68393,61
695,93	68393,61
696,38	68393,61
696,83	68393,61
697,28	68393,61
697,72	68393,61
698,17	68393,61
698,62	68393,61
699,07	68393,61
699,52	68393,61
699,97	68393,61
700,42	68393,61
700,87	68393,61
701,32	68393,61
701,77	68393,61
702,22	68393,61
702,67	68393,61
703,11	68393,61
703,56	68393,61
704,01	68393,61
704,46	68393,61
704,91	68393,61
705,36	68393,61
705,81	68393,61
706,26	68393,61
706,70	68393,61
707,15	68393,61
707,60	68393,61
708,05	68393,61
708,50	68393,61
708,95	68393,61
709,40	68393,61
709,84	68393,61
710,29	68393,61
710,74	68393,61
711,19	68393,61
711,64	68393,61
712,09	68393,61
712,53	68393,61
712,98	68393,61
713,43	68393,61
713,88	68393,61
714,33	68393,61
714,78	68393,61
715,22	68393,61
715,67	68393,61
716,12	68393,61
716,57	68393,61
717,02	68393,61
717,46	68393,61
717,91	68393,61
718,36	68393,61
718,81	68393,61
719,26	68393,61
719,70	68393,61
720,15	68393,61
720,60	68393,61
721,05	68393,61
721,49	68393,61
721,94	68393,61
722,39	68393,61
722,84	68393,61
723,28	68393,61
723,73	68393,61
724,18	68393,61
724,63	68393,61
725,07	68393,61
725,52	68393,61
725,97	68393,61
726,42	68393,61
726,86	68393,61
727,31	68393,61
727,76	68393,61
728,21	68393,61
728,65	68393,61
729,10	68393,61
729,55	68393,61
729,99	68393,61
730,44	68393,61
730,89	68393,61
731,33	68393,61
731,78	68393,61
732,23	68393,61
732,68	68393,61
733,12	68393,61
733,57	68393,61
734,02	68393,61
734,46	68393,61
734,91	68393,61
735,36	68393,61
735,80	68393,61
736,25	68393,61
736,70	68393,61
737,14	68393,61
737,59	68393,61
738,04	68393,61
738,48	68393,61
738,93	68393,61
739,37	68393,61
739,82	68393,61
740,27	68393,61
740,71	68393,61
741,16	68393,61
741,61	68393,61
742,05	68393,61
742,50	68393,61
742,94	68393,61
743,39	68393,61
743,84	68393,61
744,28	68393,61
744,73	68393,61
745,18	68393,61
745,62	68393,61
746,07	68393,61
746,51	68393,61
746,96	68393,61
747,40	68393,61
747,85	68393,61
748,30	68393,61
748,74	68393,61
749,19	68393,61
749,63	68393,61
750,08	68393,61
750,52	68393,61
750,97	68393,61
751,42	68393,61
751,86	68393,61
752,31	68393,61
752,75	68393,61
753,20	68393,61
753,64	68393,61
754,09	68393,61
754,53	68393,61
754,98	68393,61
755,42	68393,61
755,87	68393,61
756,31	68393,61
756,76	68393,61
757,20	68393,61
757,65	68393,61
758,09	68393,61
758,54	68393,61
758,98	68393,61
759,43	68393,61
759,87	68393,61
760,32	68393,61
760,76	68393,61
761,21	68393,61
761,65	68393,61
762,10	68393,61
762,54	68393,61
762,99	68393,61
763,43	68393,61
763,88	68393,61
764,32	68393,61
764,77	68393,61
765,21	68393,61
765,66	68393,61
766,10	68393,61
766,54	68393,61
766,99	68393,61
767,43	68393,61
767,88	68393,61
768,32	68393,61
768,77	68393,61
769,21	68393,61
769,66	68393,61
770,10	68393,61
770,54	68393,61
770,99	68393,61
771,43	68393,61
771,88	68393,61
772,32	68393,61
772,76	68393,61
773,21	68393,61
773,65	68393,61
774,10	68393,61
774,54	68393,61
774,98	68393,61
775,43	68393,61
775,87	68393,61
776,31	68393,61
776,76	68393,61
777,20	68393,61
777,65	68393,61
778,09	68393,61
778,53	68393,61
778,98	68393,61
779,42	68393,61
779,86	68393,61
780,31	68393,61
780,75	68393,61
781,19	68393,61
781,64	68393,61
782,08	68393,61
782,52	68393,61
782,97	68393,61
783,41	68393,61
783,85	68393,61
784,30	68393,61
784,74	68393,61
785,18	68393,61
785,63	68393,61
786,07	68393,61
786,51	68393,61
786,95	68393,61
787,40	68393,61
787,84	68393,61
788,28	68393,61
788,73	68393,61
789,17	68393,61
789,61	68393,61
790,05	68393,61
790,50	68393,61
790,94	68393,61
791,38	68393,61
791,82	68393,61
792,27	68393,61
792,71	68393,61
793,15	68393,61
793,59	68393,61
794,04	68393,61
794,48	68393,61
794,92	68393,61
795,36	68393,61
795,81	68393,61
796,25	68393,61
796,69	68393,61
797,13	68393,61
797,57	68393,61
798,02	68393,61
798,46	68393,61
798,90	68393,61
799,34	68393,61
799,79	68393,61
800,23	68393,61
800,67	68393,61
801,11	68393,61
801,55	68393,61
801,99	68393,61
802,44	68393,61
802,88	68393,61
803,32	68393,61
803,76	68393,61
804,20	68393,61
804,64	68393,61
805,09	68393,61
805,53	68393,61
805,97	68393,61
806,41	68393,61
806,85	68393,61
807,29	68393,61
807,74	68393,61
808,18	68393,61
808,62	68393,61
809,06	68393,61
809,50	68393,61
809,94	68393,61
810,38	68393,61
810,82	68393,61
811,27	68393,61
811,71	68393,61
812,15	68393,61
812,59	68393,61
813,03	68393,61
813,47	68393,61
813,91	68393,61
814,35	68393,61
814,79	68393,61
815,23	68393,61
815,67	68393,61
816,12	68393,61
816,56	68393,61
817,00	68393,61
817,44	68393,61
817,88	68393,61
818,32	68393,61
818,76	68393,61
819,20	68393,61
819,64	68393,61
820,08	68393,61
820,52	68393,61
820,96	68393,61
821,40	68393,61
821,84	68393,61
822,28	68393,61
822,72	68393,61
823,16	68393,61
823,60	68393,61
824,04	68393,61
824,48	68393,61
824,92	68393,61
825,36	68393,61
825,80	68393,61
826,24	68393,61
826,68	68393,61
827,12	68393,61
827,56	68393,61
828,00	68393,61
828,44	68393,61
828,88	68393,61
829,32	68393,61
829,76	68393,61
830,20	68393,61
830,64	68356,11
831,08	68393,61
831,52	67498,47
831,96	65947,09
832,40	63428,23
832,84	64197,57
833,28	64021,28
833,72	66117,91
834,16	65224,34
834,60	63673,23
835,04	62694,54
835,48	63648,01
835,91	61503,40
836,35	60491,21
836,79	59033,69
837,23	59618,68
837,67	57425,86
838,11	56886,90
838,55	57824,27
838,99	57938,63
839,43	61848,15
839,87	64736,99
840,30	61419,01
840,74	67096,76
841,18	65833,50
841,62	64083,45
842,06	60692,77
842,50	66763,49
842,94	60913,59
843,38	54782,89
843,81	53646,97
844,25	51629,11
844,69	50082,68
845,13	51009,67
845,57	50298,92
846,01	51159,81
846,45	49629,38
846,88	49698,85
847,32	50518,50
847,76	49322,88
848,20	49468,40
848,64	48934,92
849,08	49365,87
849,51	49763,92
849,95	48582,36
850,39	47159,27
850,83	48941,53
851,27	46486,61
851,70	46992,15
852,14	49555,50
852,58	45732,30
853,02	44466,16
853,46	45353,83
853,89	43298,93
854,33	45839,85
854,77	43005,06
855,21	43480,36
855,65	45487,64
856,08	45394,41
856,52	42912,23
856,96	42566,19
857,40	41271,43
857,83	39505,86
858,27	41795,25
858,71	38148,91
859,15	39102,60
859,58	39425,62
860,02	39965,92
860,46	40331,89
860,89	41072,28
861,33	39354,06
861,77	39609,99
862,21	39722,82
862,64	38584,92
863,08	37986,72
863,52	39295,51
863,95	36994,29
864,39	37212,25
864,83	36786,13
865,27	35671,42
865,70	37089,23
866,14	35291,83
866,58	37937,00
867,01	36066,38
867,45	37129,15
867,89	36174,06
868,32	35755,33
868,76	36531,72
869,20	35569,23
869,63	37277,01
870,07	38293,84
870,51	33028,17
870,94	33715,46
871,38	33609,41
871,82	32508,55
872,25	33585,85
872,69	34118,44
873,13	33197,22
873,56	34949,07
874,00	34897,51
874,43	33310,67
874,87	32377,13
875,31	34856,71
875,74	31301,50
876,18	33383,47
876,61	32314,10
877,05	32167,79
877,49	32104,79
877,92	31473,14
878,36	31724,85
878,79	30799,74
879,23	33073,10
879,67	30007,17
880,10	29883,88
880,54	30361,26
880,97	31136,32
881,41	32046,07
881,84	30822,10
882,28	30874,28
882,72	30684,76
883,15	30736,92
883,59	29695,82
884,02	31089,44
884,46	30474,04
884,89	30466,59
885,33	30726,27
885,76	28934,82
886,20	28309,55
886,63	31515,79
887,07	27997,24
887,50	27959,14
887,94	28936,94
888,37	28308,49
888,81	32882,71
889,24	27675,62
889,68	30242,14
890,11	28387,92
890,55	29651,21
890,98	29568,37
891,42	27582,57
891,85	27995,12
892,29	27860,73
892,72	27047,88
893,16	27545,56
893,59	28172,95
894,03	27153,50
894,46	28346,62
894,90	26843,05
895,33	26307,15
895,77	27656,59
896,20	27900,94
896,63	26694,24
897,07	26423,14
897,50	26471,65
897,94	27870,26
898,37	29085,43
898,81	26760,72
899,24	26221,77
899,68	26281,85
900,11	28096,73
900,54	27564,59
900,98	26233,36
901,41	28774,71
901,85	29070,58
902,28	25277,34
902,71	25647,70
903,15	28527,76
903,58	25755,08
904,02	26754,39
904,45	25501,41
904,88	25536,14
905,32	24965,11
905,75	27766,58
906,18	26036,30
906,62	27500,10
907,05	26469,54
907,48	25776,14
907,92	26977,13
908,35	28234,36
908,79	25632,96
909,22	24613,21
909,65	26737,51
910,09	27348,96
910,52	29756,37
910,95	31096,90
911,38	29101,35
911,82	34391,94
912,25	35448,79
912,68	30042,24
913,12	27760,24
913,55	26147,99
913,98	24699,32
914,42	24590,12
914,85	25030,27
915,28	24611,11
915,72	26228,09
916,15	24106,40
916,58	25878,29
917,01	24188,20
917,45	25774,03
917,88	23742,68
918,31	24242,74
918,74	24157,78
919,18	25151,16
919,61	25671,91
920,04	24889,45
920,47	28224,83
920,91	27141,88
921,34	25666,65
921,77	25251,05
922,20	26403,10
922,64	26306,10
923,07	26916,95
923,50	25117,52
923,93	22792,56
924,37	24598,52
924,80	22815,56
925,23	24827,47
925,66	26639,37
926,09	23286,16
926,53	24479,89
926,96	22110,75
927,39	26469,54
927,82	23503,89
928,25	22153,52
928,69	24739,23
929,12	22990,14
929,55	24120,03
929,98	24712,97
930,41	22700,61
930,84	24028,80
931,28	21423,95
931,71	25666,65
932,14	24306,74
932,57	26626,71
933,00	22706,88
933,43	24532,37
933,86	24208,13
934,30	23892,53
934,73	23220,24
935,16	21639,54
935,59	22593,00
936,02	21773,96
936,45	23011,05
936,88	21465,60
937,31	23291,40
937,75	21828,16
938,18	21812,52
938,61	23005,82
939,04	21264,68
939,47	22093,01
939,90	23338,49
940,33	25178,50
940,76	21503,09
941,19	23247,45
941,62	20952,60
942,05	21386,47
942,48	22852,14
942,91	20702,10
943,35	20450,74
943,78	22864,68
944,21	22537,65
944,64	22696,43
945,07	21859,43
945,50	22276,65
945,93	22142,04
946,36	23571,95
946,79	21573,91
947,22	22091,97
947,65	22547,05
948,08	20609,63
948,51	20629,37
948,94	20801,86
949,37	25421,45
949,80	23490,27
950,23	21454,14
950,66	21079,48
951,09	22424,87
951,52	20344,84
951,95	22845,87
952,38	21363,56
952,81	24561,77
953,24	20447,62
953,67	21248,03
954,10	21045,16
954,53	21004,60
954,96	21379,18
955,39	22618,07
955,82	20742,62
956,25	22605,54
956,68	25616,12
957,11	20610,67
957,53	22292,30
957,96	22024,17
958,39	21147,10
958,82	21155,42
959,25	21028,52
959,68	19734,01
960,11	21533,29
960,54	22371,63
960,97	22266,21
961,40	23048,70
961,83	22852,14
962,26	21276,13
962,68	22127,44
963,11	21751,03
963,54	23208,74
963,97	23075,89
964,40	21769,79
964,83	24756,04
965,26	23827,55
965,69	22877,22
966,11	23072,75
966,54	20998,36
966,97	21125,25
967,40	22999,55
967,83	27304,57
968,26	22596,14
968,69	21392,71
969,11	22152,48
969,54	20598,21
969,97	20969,24
970,40	22434,27
970,83	21104,45
971,26	21552,04
971,68	20168,43
972,11	20579,51
972,54	20958,84
972,97	22109,70
973,40	21093,00
973,82	22320,48
974,25	21531,21
974,68	20705,21
975,11	20603,40
975,54	20530,69
975,96	21619,75
976,39	20441,39
976,82	22350,75
977,25	21505,17
977,67	21251,15
978,10	21655,17
978,53	21155,42
978,96	22577,34
979,38	22130,57
979,81	20532,77
980,24	21611,41
980,67	22793,61
981,09	21197,04
981,52	21213,69
981,95	20553,54
982,38	21073,24
982,80	20363,53
983,23	22487,52
983,66	22241,17
984,08	19996,26
984,51	19141,87
984,94	20914,13
985,37	21936,58
985,79	20623,14
986,22	20152,87
986,65	21557,24
987,07	20957,80
987,50	21234,50
987,93	21017,08
988,35	21519,75
988,78	20953,64
989,21	20754,05
989,63	21772,92
990,06	20857,99
990,49	21459,35
990,91	23276,75
991,34	20626,25
991,77	20067,81
992,19	20970,28
992,62	20379,10
993,05	20411,28
993,47	21620,79
993,90	22001,23
994,32	21250,11
994,75	21180,39
995,18	19633,52
995,60	19741,27
996,03	19069,47
996,45	22352,84
996,88	22060,68
997,31	20279,46
997,73	21300,07
998,16	20085,44
998,58	23149,10
999,01	21061,80
999,44	21024,36
999,86	22859,45
1000,29	20095,82
1000,71	21361,48
1001,14	21841,71
1001,56	21084,68
1001,99	21388,55
1002,41	21025,40
1002,84	21858,39
1003,27	20327,20
1003,69	21594,74
1004,12	21504,13
1004,54	23102,03
1004,97	21230,34
1005,39	19861,48
1005,82	21903,21
1006,24	21408,33
1006,67	20833,04
1007,09	20224,46
1007,52	21439,57
1007,94	21529,12
1008,37	27187,30
1008,79	23585,56
1009,22	23518,54
1009,64	23041,38
1010,07	23693,45
1010,49	25118,57
1010,92	25427,76
1011,34	30270,85
1011,77	29152,27
1012,19	27424,00
1012,62	31101,16
1013,04	34511,04
1013,46	32332,26
1013,89	24844,28
1014,31	25377,26
1014,74	22727,77
1015,16	22988,04
1015,59	21691,63
1016,01	22973,41
1016,44	21780,21
1016,86	38000,78
1017,28	21694,76
1017,71	20095,82
1018,13	25603,49
1018,56	23129,23
1018,98	22357,02
1019,40	21001,48
1019,83	21293,82
1020,25	21862,56
1020,68	21690,59
1021,10	21861,51
1021,52	21147,10
1021,95	26466,38
1022,37	22788,38
1022,79	22275,60
1023,22	22036,69
1023,64	21396,88
1024,07	21437,48
1024,49	22020,00
1024,91	20021,14
1025,34	20259,74
1025,76	24046,63
1026,18	21611,41
1026,61	21385,43
1027,03	21108,61
1027,45	21176,23
1027,88	20173,62
1028,30	24043,48
1028,72	21102,37
1029,15	20976,52
1029,57	21369,81
1029,99	23014,19
1030,41	19761,99
1030,84	21009,80
1031,26	21851,09
1031,68	20257,66
1032,11	22057,55
1032,53	19827,28
1032,95	19971,37
1033,37	21355,24
1033,80	21859,43
1034,22	20018,03
1034,64	23406,52
1035,06	20064,70
1035,49	20188,14
1035,91	20990,04
1036,33	19252,56
1036,75	21608,29
1037,18	21886,53
1037,60	21616,62
1038,02	22146,22
1038,44	22805,10
1038,87	20423,74
1039,29	20356,26
1039,71	21360,44
1040,13	20244,17
1040,55	22664,04
1040,98	22374,76
1041,40	21835,45
1041,82	22072,15
1042,24	20824,73
1042,66	21994,97
1043,09	19852,15
1043,51	20451,77
1043,93	20381,18
1044,35	19574,49
1044,77	20710,41
1045,20	21439,57
1045,62	19948,56
1046,04	21282,37
1046,46	21770,83
1046,88	19814,84
1047,30	21918,85
1047,72	21703,10
1048,15	22013,74
1048,57	20584,70
1048,99	20754,05
1049,41	21229,30
1049,83	21831,28
1050,25	23447,35
1050,67	22331,96
1051,09	20977,56
1051,52	21155,42
1051,94	18407,30
1052,36	20651,19
1052,78	18946,44
1053,20	20413,36
1053,62	20003,51
1054,04	21243,87
1054,46	21440,61
1054,88	23360,47
1055,30	22224,47
1055,72	22199,43
1056,14	21196,00
1056,57	26078,44
1056,99	19909,16
1057,41	21325,05
1057,83	21507,25
1058,25	20168,43
1058,67	20550,43
1059,09	20200,59
1059,51	21862,56
1059,93	20815,37
1060,35	20264,93
1060,77	21748,95
1061,19	22180,65
1061,61	21125,25
1062,03	20512,00
1062,45	19892,58
1062,87	21678,09
1063,29	21969,95
1063,71	20357,30
1064,13	19781,68
1064,55	19188,41
1064,97	22172,30
1065,39	20648,07
1065,81	20587,82
1066,23	20931,81
1066,65	20371,83
1067,07	23211,87
1067,49	20841,36
1067,91	20179,84
1068,33	19426,42
1068,75	21997,06
1069,17	22169,17
1069,59	21813,56
1070,00	20447,62
1070,42	21472,89
1070,84	20171,54
1071,26	19582,77
1071,68	19261,87
1072,10	21572,87
1072,52	20240,02
1072,94	19401,58
1073,36	19978,63
1073,78	20046,03
1074,20	20892,30
1074,62	19774,42
1075,03	19672,89
1075,45	20401,94
1075,87	21836,50
1076,29	20158,06
1076,71	21524,96
1077,13	22666,13
1077,55	18791,42
1077,97	20966,12
1078,38	20084,41
1078,80	20284,65
1079,22	21143,98
1079,64	20493,31
1080,06	20150,79
1080,48	21116,93
1080,89	20519,27
1081,31	20540,04
1081,73	20748,86
1082,15	20816,41
1082,57	21909,47
1082,99	20741,58
1083,40	20134,20
1083,82	22249,51
1084,24	19833,50
1084,66	20110,34
1085,08	21025,40
1085,49	18857,56
1085,91	21392,71
1086,33	40975,45
1086,75	21434,36
1087,17	19778,57
1087,58	19931,97
1088,00	20240,02
1088,42	21998,10
1088,84	20534,85
1089,25	19386,05
1089,67	19940,27
1090,09	20144,57
1090,51	19615,91
1090,92	20434,12
1091,34	19857,34
1091,76	20486,04
1092,18	20104,11
1092,59	20327,20
1093,01	20209,93
1093,43	20411,28
1093,84	19568,27
1094,26	20380,14
1094,68	21021,24
1095,10	19462,66
1095,51	20322,01
1095,93	19855,26
1096,35	21196,00
1096,76	21151,26
1097,18	21019,16
1097,60	20303,33
1098,01	20037,74
1098,43	19540,31
1098,85	20109,30
1099,26	19858,37
1099,68	20377,02
1100,10	19044,66
1100,51	19807,59
1100,93	20136,27
1101,35	20492,27
1101,76	20577,43
1102,18	29819,06
1102,60	22154,56
1103,01	18087,53
1103,43	20380,14
1103,84	19937,16
1104,26	19499,93
1104,68	20297,10
1105,09	18128,78
1105,51	18717,04
1105,92	21417,70
1106,34	18747,00
1106,76	20813,29
1107,17	20489,15
1107,59	20558,74
1108,00	18286,57
1108,42	19957,89
1108,83	18450,64
1109,25	19422,28
1109,67	18619,96
1110,08	18623,05
1110,50	18276,26
1110,91	19431,60
1111,33	18885,46
1111,74	18617,89
1112,16	19758,88
1112,57	20207,86
1112,99	19073,61
1113,41	19459,55
1113,82	19110,84
1114,24	19822,10
1114,65	19374,67
1115,07	18577,62
1115,48	17966,93
1115,90	1861,74
1116,31	2219,93
1116,73	2182,01
1117,14	2185,00
>>>>>End Processed Spectral Data<<<<<
