SpectraSuite Data File
++++++++++++++++++++++++++++++++++++
Date: Wed Jul 27 14:32:27 EEST 2016
User: OO Maya
Dark Spectrum Present: No
Reference Spectrum Present: No
Number of Sampled Component Spectra: 1
Spectrometers: MAYP11278
Integration Time (usec): 15000000 (MAYP11278)
Spectra Averaged: 1 (MAYP11278)
Boxcar Smoothing: 0 (MAYP11278)
Correct for Electrical Dark: No (MAYP11278)
Strobe/Lamp Enabled: No (MAYP11278)
Correct for Detector Non-linearity: Yes (MAYP11278)
Correct for Stray Light: No (MAYP11278)
Number of Pixels in Processed Spectrum: 2068
>>>>>Begin Processed Spectral Data<<<<<
187,82	2348,63
188,30	2272,81
188,78	2233,89
189,26	2230,90
189,73	18051,45
190,21	19840,75
190,69	20489,15
191,17	21035,80
191,64	22282,91
192,12	21230,34
192,60	20709,37
193,07	19929,90
193,55	21189,76
194,03	20960,92
194,51	21526,00
194,98	20877,74
195,46	22468,73
195,94	20787,31
196,42	21084,68
196,89	24358,15
197,37	21047,24
197,85	20197,48
198,32	20815,37
198,80	20441,39
199,28	21470,80
199,76	21880,28
200,23	20840,32
200,71	20876,70
201,19	22034,60
201,66	22234,90
202,14	21868,81
202,62	20080,26
203,09	21746,86
203,57	20337,58
204,05	22298,56
204,53	22859,45
205,00	20498,50
205,48	20622,10
205,96	23038,24
206,43	20868,39
206,91	21627,04
207,39	24539,72
207,86	21787,51
208,34	21997,06
208,82	21112,77
209,29	22349,71
209,77	22026,26
210,25	21446,85
210,72	21296,95
211,20	21782,30
211,68	21385,43
212,15	20833,04
212,63	23630,60
213,11	22060,68
213,58	21041,00
214,06	23532,16
214,53	21686,42
215,01	23336,40
215,49	22053,38
215,96	22150,39
216,44	22185,86
216,92	22276,65
217,39	20848,64
217,87	21320,88
218,35	22877,22
218,82	20063,66
219,30	20830,96
219,77	20800,82
220,25	21532,25
220,73	24203,93
221,20	20877,74
221,68	22747,63
222,15	20701,06
222,63	22581,52
223,11	21150,22
223,58	22550,18
224,06	21470,80
224,53	21025,40
225,01	20727,04
225,49	21430,19
225,96	20881,90
226,44	21827,11
226,91	22725,68
227,39	21584,33
227,87	22886,63
228,34	22387,29
228,82	22106,57
229,29	21348,99
229,77	21534,33
230,24	21025,40
230,72	22467,68
231,20	22393,55
231,67	21716,64
232,15	21811,48
232,62	20610,67
233,10	21973,07
233,57	22075,28
234,05	25936,22
234,53	22211,95
235,00	21072,20
235,48	20938,04
235,95	20357,30
236,43	22913,81
236,90	24133,66
237,38	21262,60
237,85	22072,15
238,33	21798,97
238,80	21966,82
239,28	21686,42
239,75	20534,85
240,23	22390,42
240,71	23240,12
241,18	22049,20
241,66	21524,96
242,13	22936,81
242,61	23102,03
243,08	20525,50
243,56	20860,07
244,03	22517,81
244,51	23391,87
244,98	21378,14
245,46	23468,29
245,93	68393,61
246,41	20259,74
246,88	22012,70
247,36	21755,20
247,83	22064,85
248,31	22252,64
248,78	20119,67
249,26	21973,07
249,73	22742,40
250,21	22118,05
250,68	23724,87
251,16	21954,30
251,63	24146,25
252,10	23442,12
252,58	21307,35
253,05	23374,08
253,53	21944,92
254,00	21706,22
254,48	22106,57
254,95	22303,78
255,43	22859,45
255,90	21216,81
256,38	22270,39
256,85	22757,03
257,33	23102,03
257,80	25589,81
258,27	22244,30
258,75	21427,07
259,22	22335,10
259,70	22649,41
260,17	24067,60
260,65	22067,98
261,12	21470,80
261,59	23308,14
262,07	21285,50
262,54	22565,85
263,02	21665,59
263,49	20691,71
263,97	22840,64
264,44	23203,50
264,91	21545,79
265,39	22209,86
265,86	22625,39
266,34	22790,47
266,81	21577,04
267,28	21958,48
267,76	22281,87
268,23	22622,25
268,71	20363,53
269,18	21053,48
269,65	21527,04
270,13	22612,85
270,60	23682,97
271,08	21884,45
271,55	22181,69
272,02	20794,59
272,50	21063,88
272,97	20172,58
273,44	22091,97
273,92	26644,65
274,39	23164,80
274,87	23275,70
275,34	21804,18
275,81	22017,92
276,29	22783,16
276,76	23342,68
277,23	21085,72
277,71	22075,28
278,18	21204,32
278,65	27383,83
279,13	22159,78
279,60	21585,37
280,07	27152,44
280,55	23541,58
281,02	26327,19
281,50	21893,83
281,97	23798,21
282,44	22052,33
282,91	22400,86
283,39	23266,28
283,86	21332,33
284,33	21415,62
284,81	23527,97
285,28	22487,52
285,75	23012,09
286,23	22839,59
286,70	20930,77
287,17	23291,40
287,65	24871,59
288,12	22186,91
288,59	23559,38
289,07	20636,64
289,54	24557,57
290,01	21814,61
290,48	23207,69
290,96	22087,80
291,43	23343,72
291,90	25609,81
292,38	22239,08
292,85	23898,82
293,32	22257,86
293,79	23391,87
294,27	23457,82
294,74	22188,99
295,21	22734,04
295,69	22842,73
296,16	25178,50
296,63	24749,73
297,10	23606,51
297,58	23255,82
298,05	23206,64
298,52	22378,94
298,99	24772,84
299,47	22599,27
299,94	23258,96
300,41	22286,04
300,88	23955,42
301,36	24017,27
301,83	23907,20
302,30	21734,36
302,77	23614,89
303,25	23552,05
303,72	21704,14
304,19	22304,83
304,66	21827,11
305,13	23058,11
305,61	23229,66
306,08	22996,41
306,55	23469,34
307,02	22241,17
307,49	22529,29
307,97	23036,15
308,44	22350,75
308,91	23877,86
309,38	23903,01
309,86	23069,61
310,33	22614,94
310,80	23082,16
311,27	21882,36
311,74	23897,77
312,21	22468,73
312,69	24658,37
313,16	21822,95
313,63	22100,31
314,10	22644,19
314,57	21826,07
315,05	21602,04
315,52	23644,21
315,99	23228,61
316,46	22731,95
316,93	23348,96
317,40	22815,56
317,88	26033,13
318,35	22539,74
318,82	22299,61
319,29	20900,61
319,76	22832,28
320,23	24787,55
320,70	23686,11
321,18	22029,39
321,65	20521,35
322,12	21220,97
322,59	24620,56
323,06	21990,80
323,53	25715,07
324,00	21095,08
324,48	22510,50
324,95	22149,35
325,42	21620,79
325,89	21940,75
326,36	21841,71
326,83	22874,09
327,30	22971,31
327,77	22764,35
328,24	22749,72
328,72	22173,34
329,19	21827,11
329,66	21866,73
330,13	21497,88
330,60	23129,23
331,07	22702,70
331,54	24147,30
332,01	21381,26
332,48	24688,82
332,95	23095,76
333,43	22800,92
333,90	23852,71
334,37	22701,65
334,84	23366,75
335,31	27306,69
335,78	21057,64
336,25	22207,77
336,72	21950,13
337,19	22670,31
337,66	21842,75
338,13	21947,01
338,60	24231,20
339,07	23549,96
339,54	21115,89
340,01	21438,52
340,49	21204,32
340,96	22856,32
341,43	23684,02
341,90	21720,81
342,37	22650,46
342,84	23173,17
343,31	22771,66
343,78	21884,45
344,25	22181,69
344,72	21521,83
345,19	22333,01
345,66	23148,06
346,13	21911,56
346,60	21390,63
347,07	24340,31
347,54	21827,11
348,01	23665,16
348,48	22742,40
348,95	20815,37
349,42	22562,71
349,89	23306,05
350,36	22471,86
350,83	21283,41
351,30	22776,89
351,77	24554,42
352,24	22877,22
352,71	22169,17
353,18	22574,20
353,65	23089,48
354,12	22523,03
354,59	23366,75
355,06	22609,72
355,53	24631,06
356,00	21702,05
356,47	24372,84
356,94	21269,88
357,41	26184,88
357,88	23126,09
358,35	21020,20
358,82	21394,80
359,28	21890,70
359,75	21636,41
360,22	23389,78
360,69	24236,45
361,16	21781,25
361,63	22130,57
362,10	22248,47
362,57	22094,06
363,04	22259,95
363,51	25322,57
363,98	23049,74
364,45	21410,41
364,92	23223,38
365,39	21772,92
365,86	21123,17
366,32	22725,68
366,79	22520,94
367,26	45774,00
367,73	20539,00
368,20	21441,65
368,67	23380,36
369,14	21259,48
369,61	23667,26
370,08	22815,56
370,55	21945,96
371,02	31242,88
371,48	23012,09
371,95	21720,81
372,42	20915,17
372,89	21381,26
373,36	22355,97
373,83	20966,12
374,30	21710,39
374,77	22873,04
375,23	20751,98
375,70	24446,30
376,17	21807,31
376,64	21104,45
377,11	21193,92
377,58	23027,78
378,05	22613,90
378,51	22245,34
378,98	22503,19
379,45	22385,20
379,92	23072,75
380,39	25820,36
380,86	22510,50
381,33	24393,83
381,79	24232,25
382,26	21086,76
382,73	22940,99
383,20	22207,77
383,67	23764,69
384,14	22290,21
384,60	29278,55
385,07	22660,91
385,54	22000,19
386,01	22009,57
386,48	24944,09
386,94	21532,25
387,41	21252,19
387,88	23878,91
388,35	23148,06
388,82	24167,22
389,28	21851,09
389,75	23416,99
390,22	22955,63
390,69	23400,24
391,16	22849,00
391,62	22859,45
392,09	23239,08
392,56	22513,63
393,03	22580,47
393,50	26013,12
393,96	22891,86
394,43	24455,75
394,90	22244,30
395,37	24048,72
395,83	29288,10
396,30	21879,24
396,77	23997,35
397,24	24399,08
397,70	22260,99
398,17	23480,85
398,64	23127,14
399,11	22641,06
399,57	25339,40
400,04	22748,67
400,51	24338,21
400,98	24293,10
401,44	25570,87
401,91	26112,16
402,38	27195,75
402,84	30020,98
403,31	39995,23
403,78	47064,71
404,25	65902,10
404,71	58934,63
405,18	37192,82
405,65	30548,52
406,12	32687,04
406,58	33587,99
407,05	37330,98
407,52	37150,74
407,98	37373,09
408,45	38517,81
408,92	38265,71
409,38	42824,88
409,85	42637,13
410,32	47846,84
410,78	48443,58
411,25	53801,77
411,72	55450,23
412,18	57835,37
412,65	64361,54
413,12	68027,68
413,59	68393,61
414,05	68393,61
414,52	68393,61
414,98	68393,61
415,45	68393,61
415,92	68393,61
416,38	68393,61
416,85	68393,61
417,32	68393,61
417,78	68393,61
418,25	68393,61
418,72	68393,61
419,18	68393,61
419,65	68393,61
420,12	68393,61
420,58	68393,61
421,05	68393,61
421,51	68393,61
421,98	68393,61
422,45	68393,61
422,91	68393,61
423,38	68393,61
423,85	68393,61
424,31	68393,61
424,78	68393,61
425,24	68393,61
425,71	68393,61
426,18	68393,61
426,64	68393,61
427,11	68393,61
427,57	68393,61
428,04	68393,61
428,51	68393,61
428,97	68393,61
429,44	68393,61
429,90	68393,61
430,37	68393,61
430,83	68393,61
431,30	68393,61
431,77	68393,61
432,23	68393,61
432,70	68393,61
433,16	68393,61
433,63	68393,61
434,09	68393,61
434,56	68393,61
435,03	68393,61
435,49	68393,61
435,96	68393,61
436,42	68393,61
436,89	68393,61
437,35	68393,61
437,82	68393,61
438,28	68393,61
438,75	68393,61
439,21	68393,61
439,68	68393,61
440,14	68393,61
440,61	68393,61
441,07	68393,61
441,54	68393,61
442,00	68393,61
442,47	68393,61
442,94	68393,61
443,40	68393,61
443,87	68393,61
444,33	68393,61
444,80	68393,61
445,26	68393,61
445,73	68393,61
446,19	68393,61
446,65	68393,61
447,12	68393,61
447,58	68393,61
448,05	68393,61
448,51	68393,61
448,98	68393,61
449,44	68393,61
449,91	68393,61
450,37	68393,61
450,84	68393,61
451,30	68393,61
451,77	68393,61
452,23	68393,61
452,70	68393,61
453,16	68393,61
453,62	68393,61
454,09	68393,61
454,55	68393,61
455,02	68393,61
455,48	68393,61
455,95	68393,61
456,41	68393,61
456,88	68393,61
457,34	68393,61
457,80	68393,61
458,27	68393,61
458,73	68393,61
459,20	68393,61
459,66	68393,61
460,13	68393,61
460,59	68393,61
461,05	68393,61
461,52	68393,61
461,98	68393,61
462,45	68393,61
462,91	68393,61
463,37	68393,61
463,84	68393,61
464,30	68393,61
464,76	68393,61
465,23	68393,61
465,69	68393,61
466,16	68393,61
466,62	68393,61
467,08	68393,61
467,55	68393,61
468,01	68393,61
468,48	68393,61
468,94	68393,61
469,40	68393,61
469,87	68393,61
470,33	68393,61
470,79	68393,61
471,26	68393,61
471,72	68393,61
472,18	68393,61
472,65	68393,61
473,11	68393,61
473,57	68393,61
474,04	68393,61
474,50	68393,61
474,96	68393,61
475,43	68393,61
475,89	68393,61
476,35	68393,61
476,82	68393,61
477,28	68393,61
477,74	68393,61
478,21	68393,61
478,67	68393,61
479,13	68393,61
479,59	68393,61
480,06	68393,61
480,52	68393,61
480,98	68393,61
481,45	68393,61
481,91	68393,61
482,37	68393,61
482,84	68393,61
483,30	68393,61
483,76	68393,61
484,22	68393,61
484,69	68393,61
485,15	68393,61
485,61	68393,61
486,07	68393,61
486,54	68393,61
487,00	68393,61
487,46	68393,61
487,92	68393,61
488,39	68393,61
488,85	68393,61
489,31	68393,61
489,77	68393,61
490,24	68393,61
490,70	68393,61
491,16	68393,61
491,62	68393,61
492,09	68393,61
492,55	68393,61
493,01	68393,61
493,47	68393,61
493,94	68393,61
494,40	68393,61
494,86	68393,61
495,32	68393,61
495,78	68393,61
496,25	68393,61
496,71	68393,61
497,17	68393,61
497,63	68393,61
498,09	68393,61
498,56	68393,61
499,02	68393,61
499,48	68393,61
499,94	68393,61
500,40	68393,61
500,87	68393,61
501,33	68393,61
501,79	68393,61
502,25	68393,61
502,71	68393,61
503,17	68393,61
503,64	68393,61
504,10	68393,61
504,56	68393,61
505,02	68393,61
505,48	68393,61
505,94	68393,61
506,40	68393,61
506,87	68393,61
507,33	68393,61
507,79	68393,61
508,25	68393,61
508,71	68393,61
509,17	68393,61
509,63	68393,61
510,10	68393,61
510,56	68393,61
511,02	68393,61
511,48	68393,61
511,94	68393,61
512,40	68393,61
512,86	68393,61
513,32	68393,61
513,78	68393,61
514,25	68393,61
514,71	68393,61
515,17	68393,61
515,63	68393,61
516,09	68393,61
516,55	68393,61
517,01	68393,61
517,47	68393,61
517,93	68393,61
518,39	68393,61
518,85	68393,61
519,32	68393,61
519,78	68393,61
520,24	68393,61
520,70	68393,61
521,16	68393,61
521,62	68393,61
522,08	68393,61
522,54	68393,61
523,00	68393,61
523,46	68393,61
523,92	68393,61
524,38	68393,61
524,84	68393,61
525,30	68393,61
525,76	68393,61
526,22	68393,61
526,68	68393,61
527,14	68393,61
527,60	68393,61
528,06	68393,61
528,52	68393,61
528,98	68393,61
529,44	68393,61
529,90	68393,61
530,36	68393,61
530,82	68393,61
531,28	68393,61
531,74	68393,61
532,20	68393,61
532,66	68393,61
533,12	68393,61
533,58	68393,61
534,04	68393,61
534,50	68393,61
534,96	68393,61
535,42	68393,61
535,88	68393,61
536,34	68393,61
536,80	68393,61
537,26	68393,61
537,72	68393,61
538,18	68393,61
538,64	68393,61
539,10	68393,61
539,56	68393,61
540,02	68393,61
540,48	68393,61
540,94	68393,61
541,40	68393,61
541,86	68393,61
542,32	68393,61
542,78	68393,61
543,24	68393,61
543,69	68393,61
544,15	68393,61
544,61	68393,61
545,07	68393,61
545,53	68393,61
545,99	68393,61
546,45	68393,61
546,91	68393,61
547,37	68393,61
547,83	68393,61
548,29	68393,61
548,74	68393,61
549,20	68393,61
549,66	68393,61
550,12	68393,61
550,58	68393,61
551,04	68393,61
551,50	68393,61
551,96	68393,61
552,42	68393,61
552,87	68393,61
553,33	68393,61
553,79	68393,61
554,25	68393,61
554,71	68393,61
555,17	68393,61
555,63	68393,61
556,08	68393,61
556,54	68393,61
557,00	68393,61
557,46	68393,61
557,92	68393,61
558,38	68393,61
558,83	68393,61
559,29	68393,61
559,75	68393,61
560,21	68393,61
560,67	68393,61
561,13	68393,61
561,58	68393,61
562,04	68393,61
562,50	68393,61
562,96	68393,61
563,42	68393,61
563,87	68393,61
564,33	68393,61
564,79	68393,61
565,25	68393,61
565,71	68393,61
566,16	68393,61
566,62	68393,61
567,08	68393,61
567,54	68393,61
568,00	68393,61
568,45	68393,61
568,91	68393,61
569,37	68393,61
569,83	68393,61
570,28	68393,61
570,74	68393,61
571,20	68393,61
571,66	68393,61
572,11	68393,61
572,57	68393,61
573,03	68393,61
573,49	68393,61
573,94	68393,61
574,40	68393,61
574,86	68393,61
575,32	68393,61
575,77	68393,61
576,23	68393,61
576,69	68393,61
577,15	68393,61
577,60	68393,61
578,06	68393,61
578,52	68393,61
578,97	68393,61
579,43	68393,61
579,89	68393,61
580,34	68393,61
580,80	68393,61
581,26	68393,61
581,72	68393,61
582,17	68393,61
582,63	68393,61
583,09	68393,61
583,54	68393,61
584,00	68393,61
584,46	68393,61
584,91	68393,61
585,37	68393,61
585,83	68393,61
586,28	68393,61
586,74	68393,61
587,20	68393,61
587,65	68393,61
588,11	68393,61
588,57	68393,61
589,02	68393,61
589,48	68393,61
589,94	68393,61
590,39	68393,61
590,85	68393,61
591,30	68393,61
591,76	68393,61
592,22	68393,61
592,67	68393,61
593,13	68393,61
593,59	68393,61
594,04	68393,61
594,50	68393,61
594,95	68393,61
595,41	68393,61
595,87	68393,61
596,32	68393,61
596,78	68393,61
597,23	68393,61
597,69	68393,61
598,15	68393,61
598,60	68393,61
599,06	68393,61
599,51	68393,61
599,97	68393,61
600,43	68393,61
600,88	68393,61
601,34	68393,61
601,79	68393,61
602,25	68393,61
602,70	68393,61
603,16	68393,61
603,61	68393,61
604,07	68393,61
604,53	68393,61
604,98	68393,61
605,44	68393,61
605,89	68393,61
606,35	68393,61
606,80	68393,61
607,26	68393,61
607,71	68393,61
608,17	68393,61
608,62	68393,61
609,08	68393,61
609,53	68393,61
609,99	68393,61
610,44	68393,61
610,90	68393,61
611,35	68393,61
611,81	68393,61
612,26	68393,61
612,72	68393,61
613,17	68393,61
613,63	68393,61
614,08	68393,61
614,54	68393,61
614,99	68393,61
615,45	68393,61
615,90	68393,61
616,36	68393,61
616,81	68393,61
617,27	68393,61
617,72	68393,61
618,18	68393,61
618,63	68393,61
619,09	68393,61
619,54	68393,61
619,99	68393,61
620,45	68393,61
620,90	68393,61
621,36	68393,61
621,81	68393,61
622,27	68393,61
622,72	68393,61
623,18	68393,61
623,63	68393,61
624,08	68393,61
624,54	68393,61
624,99	68393,61
625,45	68393,61
625,90	68393,61
626,35	68393,61
626,81	68393,61
627,26	68393,61
627,72	68393,61
628,17	68393,61
628,62	68393,61
629,08	68393,61
629,53	68393,61
629,99	68393,61
630,44	68393,61
630,89	68393,61
631,35	68393,61
631,80	68393,61
632,26	68393,61
632,71	68393,61
633,16	68393,61
633,62	68393,61
634,07	68393,61
634,52	68393,61
634,98	68393,61
635,43	68393,61
635,88	68393,61
636,34	68393,61
636,79	68393,61
637,24	68393,61
637,70	68393,61
638,15	68393,61
638,60	68393,61
639,06	68393,61
639,51	68393,61
639,96	68393,61
640,42	68393,61
640,87	68393,61
641,32	68393,61
641,78	68393,61
642,23	68393,61
642,68	68393,61
643,14	68393,61
643,59	68393,61
644,04	68393,61
644,49	68393,61
644,95	68393,61
645,40	68393,61
645,85	68393,61
646,31	68393,61
646,76	68393,61
647,21	68393,61
647,66	68393,61
648,12	68393,61
648,57	68393,61
649,02	68393,61
649,47	68393,61
649,93	68393,61
650,38	68393,61
650,83	68393,61
651,28	68393,61
651,74	68393,61
652,19	68393,61
652,64	68393,61
653,09	68393,61
653,55	68393,61
654,00	68393,61
654,45	68393,61
654,90	68393,61
655,35	68393,61
655,81	68393,61
656,26	68393,61
656,71	68393,61
657,16	68393,61
657,62	68393,61
658,07	68393,61
658,52	68393,61
658,97	68393,61
659,42	68393,61
659,88	68393,61
660,33	68393,61
660,78	68393,61
661,23	68393,61
661,68	68393,61
662,13	68393,61
662,59	68393,61
663,04	68393,61
663,49	68393,61
663,94	68393,61
664,39	68393,61
664,84	68393,61
665,30	68393,61
665,75	68393,61
666,20	68393,61
666,65	68393,61
667,10	68393,61
667,55	68393,61
668,00	68393,61
668,46	68393,61
668,91	68393,61
669,36	68393,61
669,81	68393,61
670,26	68393,61
670,71	68393,61
671,16	68393,61
671,61	68393,61
672,06	68393,61
672,52	68393,61
672,97	68393,61
673,42	68393,61
673,87	68393,61
674,32	68393,61
674,77	68393,61
675,22	68393,61
675,67	68393,61
676,12	68393,61
676,57	68393,61
677,02	68393,61
677,47	68393,61
677,93	68393,61
678,38	68393,61
678,83	68393,61
679,28	68393,61
679,73	68393,61
680,18	68393,61
680,63	68393,61
681,08	68393,61
681,53	68393,61
681,98	68393,61
682,43	68393,61
682,88	68393,61
683,33	68393,61
683,78	68393,61
684,23	68393,61
684,68	68393,61
685,13	68393,61
685,58	68393,61
686,03	68393,61
686,48	68393,61
686,93	68393,61
687,38	68393,61
687,83	68393,61
688,28	68393,61
688,73	68393,61
689,18	68393,61
689,63	68393,61
690,08	68393,61
690,53	68393,61
690,98	68393,61
691,43	68393,61
691,88	68393,61
692,33	68393,61
692,78	68393,61
693,23	68393,61
693,68	68393,61
694,13	68393,61
694,58	68393,61
695,03	68393,61
695,48	68393,61
695,93	68393,61
696,38	68393,61
696,83	68393,61
697,28	68393,61
697,72	68393,61
698,17	68393,61
698,62	68393,61
699,07	68393,61
699,52	68393,61
699,97	68393,61
700,42	68393,61
700,87	68393,61
701,32	68393,61
701,77	68393,61
702,22	68393,61
702,67	68393,61
703,11	68393,61
703,56	68393,61
704,01	68393,61
704,46	68393,61
704,91	68393,61
705,36	68393,61
705,81	68393,61
706,26	68393,61
706,70	68393,61
707,15	68393,61
707,60	68393,61
708,05	68393,61
708,50	68393,61
708,95	68393,61
709,40	68393,61
709,84	68393,61
710,29	68393,61
710,74	68393,61
711,19	68393,61
711,64	68393,61
712,09	68393,61
712,53	68393,61
712,98	68393,61
713,43	68393,61
713,88	68393,61
714,33	68393,61
714,78	68393,61
715,22	68393,61
715,67	68393,61
716,12	68393,61
716,57	68393,61
717,02	68393,61
717,46	68393,61
717,91	68393,61
718,36	68393,61
718,81	68393,61
719,26	68393,61
719,70	68393,61
720,15	68393,61
720,60	68393,61
721,05	68393,61
721,49	68393,61
721,94	68393,61
722,39	68393,61
722,84	68393,61
723,28	68393,61
723,73	68393,61
724,18	68393,61
724,63	68393,61
725,07	68393,61
725,52	68393,61
725,97	68393,61
726,42	68393,61
726,86	68393,61
727,31	68393,61
727,76	68393,61
728,21	68393,61
728,65	68393,61
729,10	68393,61
729,55	68393,61
729,99	68393,61
730,44	68393,61
730,89	68393,61
731,33	68393,61
731,78	68393,61
732,23	68393,61
732,68	68393,61
733,12	68393,61
733,57	68393,61
734,02	68393,61
734,46	68393,61
734,91	68393,61
735,36	68393,61
735,80	68393,61
736,25	68393,61
736,70	68393,61
737,14	68393,61
737,59	68393,61
738,04	68393,61
738,48	68393,61
738,93	68393,61
739,37	68393,61
739,82	68393,61
740,27	68393,61
740,71	68393,61
741,16	68393,61
741,61	68393,61
742,05	68393,61
742,50	68393,61
742,94	68393,61
743,39	68393,61
743,84	68393,61
744,28	68393,61
744,73	68393,61
745,18	68393,61
745,62	68393,61
746,07	68393,61
746,51	68393,61
746,96	68393,61
747,40	68393,61
747,85	68393,61
748,30	68393,61
748,74	68393,61
749,19	68393,61
749,63	68393,61
750,08	68393,61
750,52	68393,61
750,97	68393,61
751,42	68393,61
751,86	68393,61
752,31	68393,61
752,75	68393,61
753,20	68393,61
753,64	68393,61
754,09	68393,61
754,53	68393,61
754,98	68393,61
755,42	68393,61
755,87	68393,61
756,31	68393,61
756,76	68393,61
757,20	68393,61
757,65	68393,61
758,09	68393,61
758,54	68393,61
758,98	68393,61
759,43	68393,61
759,87	68393,61
760,32	68393,61
760,76	68393,61
761,21	68393,61
761,65	68393,61
762,10	68393,61
762,54	68393,61
762,99	68393,61
763,43	68393,61
763,88	68393,61
764,32	68393,61
764,77	68393,61
765,21	68393,61
765,66	68393,61
766,10	68393,61
766,54	68393,61
766,99	68393,61
767,43	68393,61
767,88	68393,61
768,32	68393,61
768,77	68393,61
769,21	68393,61
769,66	68393,61
770,10	68393,61
770,54	68393,61
770,99	68393,61
771,43	68393,61
771,88	68393,61
772,32	68393,61
772,76	68393,61
773,21	68393,61
773,65	68393,61
774,10	68393,61
774,54	68393,61
774,98	68393,61
775,43	68393,61
775,87	68393,61
776,31	68393,61
776,76	68393,61
777,20	68393,61
777,65	68393,61
778,09	68393,61
778,53	68393,61
778,98	68393,61
779,42	68393,61
779,86	68393,61
780,31	68393,61
780,75	68393,61
781,19	68393,61
781,64	68393,61
782,08	68393,61
782,52	68393,61
782,97	68393,61
783,41	68393,61
783,85	68393,61
784,30	68393,61
784,74	68393,61
785,18	68393,61
785,63	68393,61
786,07	68393,61
786,51	68393,61
786,95	68393,61
787,40	68393,61
787,84	68393,61
788,28	68393,61
788,73	68393,61
789,17	68393,61
789,61	68393,61
790,05	68393,61
790,50	68393,61
790,94	68393,61
791,38	68393,61
791,82	68393,61
792,27	68393,61
792,71	68393,61
793,15	68393,61
793,59	68393,61
794,04	68393,61
794,48	68393,61
794,92	68393,61
795,36	68393,61
795,81	68393,61
796,25	68393,61
796,69	68393,61
797,13	68393,61
797,57	68393,61
798,02	68393,61
798,46	68393,61
798,90	68393,61
799,34	68393,61
799,79	68393,61
800,23	68393,61
800,67	68393,61
801,11	68393,61
801,55	68393,61
801,99	68393,61
802,44	68393,61
802,88	68393,61
803,32	68393,61
803,76	68393,61
804,20	68393,61
804,64	68393,61
805,09	68393,61
805,53	68393,61
805,97	68393,61
806,41	68393,61
806,85	68393,61
807,29	68393,61
807,74	68393,61
808,18	68393,61
808,62	68393,61
809,06	68393,61
809,50	68393,61
809,94	68393,61
810,38	68393,61
810,82	68393,61
811,27	68393,61
811,71	68393,61
812,15	68393,61
812,59	68393,61
813,03	68393,61
813,47	68393,61
813,91	68393,61
814,35	68393,61
814,79	68393,61
815,23	68393,61
815,67	68393,61
816,12	68393,61
816,56	68393,61
817,00	68393,61
817,44	68393,61
817,88	68393,61
818,32	68393,61
818,76	68393,61
819,20	68393,61
819,64	68393,61
820,08	68393,61
820,52	68393,61
820,96	68393,61
821,40	68393,61
821,84	68393,61
822,28	68393,61
822,72	68393,61
823,16	68393,61
823,60	68393,61
824,04	68393,61
824,48	68393,61
824,92	68393,61
825,36	68393,61
825,80	68393,61
826,24	68393,61
826,68	68393,61
827,12	68393,61
827,56	68393,61
828,00	68393,61
828,44	68393,61
828,88	68393,61
829,32	68393,61
829,76	66757,47
830,20	68393,61
830,64	65211,47
831,08	67405,63
831,52	64612,78
831,96	63436,23
832,40	60655,80
832,84	61240,26
833,28	61626,11
833,72	63573,55
834,16	62460,88
834,60	61087,52
835,04	60128,86
835,48	61305,45
835,91	59035,92
836,35	58089,67
836,79	56830,37
837,23	57258,36
837,67	54943,33
838,11	54844,85
838,55	55708,17
838,99	55740,28
839,43	59415,76
839,87	62682,05
840,30	58946,87
840,74	64588,43
841,18	63058,46
841,62	61413,39
842,06	58437,46
842,50	63642,28
842,94	58803,32
843,38	52714,00
843,81	51537,45
844,25	49589,69
844,69	48087,91
845,13	49122,26
845,57	48311,42
846,01	49378,00
846,45	47847,94
846,88	47676,27
847,32	48644,05
847,76	47335,23
848,20	47578,34
848,64	47113,09
849,08	47689,47
849,51	47745,60
849,95	46793,19
850,39	45232,11
850,83	47305,54
851,27	44756,42
851,70	45386,73
852,14	47592,65
852,58	44335,86
853,02	42630,58
853,46	43891,54
853,89	41574,11
854,33	44431,12
854,77	41515,30
855,21	41975,07
855,65	43743,87
856,08	44025,02
856,52	41512,04
856,96	40977,63
857,40	40199,37
857,83	38181,35
858,27	40652,48
858,71	36777,51
859,15	37652,80
859,58	38301,41
860,02	38780,88
860,46	39008,33
860,89	39673,99
861,33	38089,43
861,77	38561,11
862,21	38293,84
862,64	37229,52
863,08	36904,76
863,52	37902,41
863,95	35660,66
864,39	35840,34
864,83	35795,14
865,27	34505,67
865,70	35888,77
866,14	33789,38
866,58	36943,59
867,01	34871,74
867,45	35763,94
867,89	35165,01
868,32	34529,28
868,76	35596,12
869,20	34742,89
869,63	36051,31
870,07	37151,81
870,51	32016,18
870,94	32783,26
871,38	32740,49
871,82	31517,93
872,25	32904,09
872,69	33096,64
873,13	32222,25
873,56	34097,00
874,00	33833,32
874,43	32522,44
874,87	31431,56
875,31	34110,94
875,74	30475,10
876,18	32564,12
876,61	31548,85
877,05	31332,41
877,49	31376,12
877,92	30607,06
878,36	30895,57
878,79	30184,71
879,23	32566,26
879,67	29310,39
880,10	28827,72
880,54	29659,71
880,97	30598,54
881,41	31329,22
881,84	30252,77
882,28	30142,18
882,72	30055,00
883,15	29927,45
883,59	29032,39
884,02	30624,09
884,46	29844,56
884,89	30052,87
885,33	30326,16
885,76	28472,67
886,20	27986,65
886,63	30971,19
887,07	27549,79
887,50	27383,83
887,94	28336,03
888,37	27923,16
888,81	32435,89
889,24	26978,18
889,68	29512,09
890,11	27845,92
890,55	29067,40
890,98	29120,44
891,42	27045,77
891,85	27455,71
892,29	27486,36
892,72	26713,23
893,16	27055,27
893,59	27861,79
894,03	26925,39
894,46	27811,01
894,90	26247,07
895,33	26054,21
895,77	27226,39
896,20	27475,79
896,63	26218,61
897,07	25816,15
897,50	25988,89
897,94	27416,60
898,37	28416,52
898,81	26101,62
899,24	26022,60
899,68	25869,86
900,11	27789,85
900,54	26920,11
900,98	25710,86
901,41	28426,06
901,85	28771,53
902,28	24887,35
902,71	25157,47
903,15	28051,21
903,58	25361,49
904,02	26207,01
904,45	24958,80
904,88	25223,71
905,32	24536,57
905,75	27315,14
906,18	25605,60
906,62	27192,58
907,05	26025,76
907,48	25487,73
907,92	26679,47
908,35	27600,54
908,79	25155,36
909,22	24157,78
909,65	26122,70
910,09	27032,04
910,52	29030,27
910,95	30311,27
911,38	28607,24
911,82	33684,39
912,25	34735,37
912,68	29533,33
913,12	27333,11
913,55	25670,86
913,98	24419,02
914,42	24428,46
914,85	24806,46
915,28	24267,92
915,72	25934,11
916,15	24049,77
916,58	25702,44
917,01	23763,64
917,45	25551,92
917,88	23525,87
918,31	24170,37
918,74	23865,28
919,18	24915,72
919,61	25443,54
920,04	24530,28
920,47	27734,85
920,91	26723,79
921,34	25163,78
921,77	24825,37
922,20	26062,64
922,64	26099,52
923,07	26937,01
923,50	25033,42
923,93	22595,09
924,37	24295,20
924,80	22681,80
925,23	24754,99
925,66	26453,72
926,09	23168,98
926,53	24197,64
926,96	21939,71
927,39	26215,44
927,82	23389,78
928,25	22174,38
928,69	24374,94
929,12	22793,61
929,55	23635,83
929,98	24518,73
930,41	22469,77
930,84	23735,35
931,28	21103,41
931,71	25529,82
932,14	24201,83
932,57	26358,82
933,00	22591,96
933,43	24203,93
933,86	23792,98
934,30	23675,64
934,73	23084,25
935,16	21504,13
935,59	22186,91
936,02	21508,29
936,45	22936,81
936,88	21183,51
937,31	23220,24
937,75	21649,96
938,18	21775,00
938,61	22929,49
939,04	20967,16
939,47	22033,56
939,90	23308,14
940,33	25003,99
940,76	21315,68
941,19	23056,02
941,62	20743,66
942,05	21246,99
942,48	22588,83
942,91	20712,49
943,35	20396,75
943,78	22560,63
944,21	22227,60
944,64	22305,87
945,07	21901,13
945,50	22031,47
945,93	22142,04
946,36	23513,31
946,79	21688,51
947,22	21884,45
947,65	22241,17
948,08	20302,29
948,51	20576,39
948,94	20689,63
949,37	25358,33
949,80	23366,75
950,23	21315,68
950,66	21068,04
951,09	22205,69
951,52	20242,10
951,95	22707,92
952,38	21230,34
952,81	24310,94
953,24	20444,51
953,67	21122,13
954,10	21117,97
954,53	21176,23
954,96	21123,17
955,39	22555,40
955,82	20610,67
956,25	22485,43
956,68	25698,23
957,11	20335,50
957,53	22235,95
957,96	21944,92
958,39	21002,52
958,82	20969,24
959,25	20842,40
959,68	19580,70
960,11	21492,67
960,54	22222,38
960,97	22195,25
961,40	23097,85
961,83	22648,37
962,26	21222,01
962,68	22004,36
963,11	21736,44
963,54	22900,22
963,97	23181,53
964,40	21788,55
964,83	24583,82
965,26	23822,32
965,69	22832,28
966,11	22902,31
966,54	20729,11
966,97	21054,52
967,40	22884,54
967,83	27320,43
968,26	22385,20
968,69	21171,03
969,11	22035,65
969,54	20490,19
969,97	20792,51
970,40	22131,61
970,83	20916,21
971,26	21356,28
971,68	20005,59
972,11	20501,62
972,54	20961,96
972,97	22039,82
973,40	20908,93
973,82	22069,02
974,25	21641,62
974,68	20698,98
975,11	20510,96
975,54	20426,86
975,96	21401,04
976,39	20442,43
976,82	22303,78
977,25	21518,71
977,67	21262,60
978,10	21361,48
978,53	20921,41
978,96	22504,23
979,38	21933,45
979,81	20436,20
980,24	21517,67
980,67	22722,55
981,09	21220,97
981,52	21121,09
981,95	20585,74
982,38	20990,04
982,80	20342,77
983,23	22429,05
983,66	22153,52
984,08	20106,19
984,51	19153,24
984,94	20900,61
985,37	21819,82
985,79	20636,64
986,22	20070,92
986,65	21702,05
987,07	20897,50
987,50	21098,20
987,93	20842,40
988,35	21328,17
988,78	20857,99
989,21	20557,70
989,63	21591,62
990,06	20766,53
990,49	21337,54
990,91	23358,38
991,34	20481,89
991,77	20049,14
992,19	20806,02
992,62	20246,25
993,05	20362,49
993,47	21498,92
993,90	21701,01
994,32	21088,84
994,75	21016,04
995,18	19493,72
995,60	19749,56
996,03	19005,37
996,45	22290,21
996,88	22046,08
997,31	20370,79
997,73	21142,94
998,16	20082,33
998,58	22842,73
999,01	20650,15
999,44	20920,37
999,86	22630,61
1000,29	19987,96
1000,71	21132,53
1001,14	21709,35
1001,56	21100,28
1001,99	21366,69
1002,41	20908,93
1002,84	21832,33
1003,27	20107,23
1003,69	21703,10
1004,12	21532,25
1004,54	22813,47
1004,97	21116,93
1005,39	19937,16
1005,82	21923,02
1006,24	21224,10
1006,67	20721,84
1007,09	20187,11
1007,52	21264,68
1007,94	21350,03
1008,37	27001,41
1008,79	23501,79
1009,22	23340,58
1009,64	22909,63
1010,07	23477,71
1010,49	24770,74
1010,92	25039,73
1011,34	29518,46
1011,77	28633,73
1012,19	26928,56
1012,62	30493,19
1013,04	33525,87
1013,46	31803,80
1013,89	24347,66
1014,31	25146,95
1014,74	22457,24
1015,16	22800,92
1015,59	21491,63
1016,01	22823,92
1016,44	21602,04
1016,86	45866,19
1017,28	21373,97
1017,71	19948,56
1018,13	25536,14
1018,56	23023,60
1018,98	22349,71
1019,40	20862,15
1019,83	21275,09
1020,25	21891,75
1020,68	21608,29
1021,10	21827,11
1021,52	21029,56
1021,95	26196,47
1022,37	22685,98
1022,79	22162,91
1023,22	21823,99
1023,64	21363,56
1024,07	21363,56
1024,49	21669,75
1024,91	19963,08
1025,34	20020,11
1025,76	23931,31
1026,18	21693,72
1026,61	21481,22
1027,03	20853,83
1027,45	21062,84
1027,88	20145,61
1028,30	24014,13
1028,72	21036,84
1029,15	20977,56
1029,57	21241,79
1029,99	22867,82
1030,41	19698,79
1030,84	21004,60
1031,26	21877,15
1031,68	20227,57
1032,11	22133,70
1032,53	19898,80
1032,95	19853,19
1033,37	21325,05
1033,80	21901,13
1034,22	20158,06
1034,64	23288,26
1035,06	20149,76
1035,49	20278,42
1035,91	20909,97
1036,33	19181,17
1036,75	21631,20
1037,18	21958,48
1037,60	21655,17
1038,02	22086,75
1038,44	22872,00
1038,87	20393,63
1039,29	20298,14
1039,71	21178,31
1040,13	20168,43
1040,55	22669,26
1040,98	22591,96
1041,40	21765,62
1041,82	21925,11
1042,24	20771,72
1042,66	21826,07
1043,09	19877,03
1043,51	20447,62
1043,93	20265,97
1044,35	19456,44
1044,77	20743,66
1045,20	21419,78
1045,62	19836,61
1046,04	21250,11
1046,46	21772,92
1046,88	19820,02
1047,30	22027,30
1047,72	21648,92
1048,15	21744,78
1048,57	20468,39
1048,99	20551,47
1049,41	21396,88
1049,83	21991,84
1050,25	23433,74
1050,67	22223,43
1051,09	20800,82
1051,52	21262,60
1051,94	18495,03
1052,36	20965,08
1052,78	18699,48
1053,20	20181,92
1053,62	19952,71
1054,04	21172,07
1054,46	21432,28
1054,88	23321,75
1055,30	22173,34
1055,72	22013,74
1056,14	21163,75
1056,57	26064,74
1056,99	19656,31
1057,41	21355,24
1057,83	21455,18
1058,25	20240,02
1058,67	20585,74
1059,09	19958,93
1059,51	21855,26
1059,93	20850,72
1060,35	20268,04
1060,77	21733,31
1061,19	22195,25
1061,61	20874,62
1062,03	20421,66
1062,45	19987,96
1062,87	21588,49
1063,29	21900,09
1063,71	20229,65
1064,13	19891,54
1064,55	19122,22
1064,97	22002,27
1065,39	20627,29
1065,81	20643,91
1066,23	20975,48
1066,65	20289,83
1067,07	23188,86
1067,49	20843,44
1067,91	20164,28
1068,33	19193,59
1068,75	21863,60
1069,17	22084,67
1069,59	21800,01
1070,00	20255,59
1070,42	21498,92
1070,84	20145,61
1071,26	19484,40
1071,68	19359,14
1072,10	21668,71
1072,52	20329,27
1072,94	19319,81
1073,36	19873,92
1073,78	20014,92
1074,20	20978,60
1074,62	19967,22
1075,03	19706,04
1075,45	20450,74
1075,87	21792,72
1076,29	20181,92
1076,71	21632,25
1077,13	22656,73
1077,55	18603,43
1077,97	20846,56
1078,38	20055,37
1078,80	20378,06
1079,22	21065,96
1079,64	20529,66
1080,06	20252,48
1080,48	21143,98
1080,89	20541,08
1081,31	20432,05
1081,73	20614,83
1082,15	20732,23
1082,57	21768,75
1082,99	20604,44
1083,40	20197,48
1083,82	22292,30
1084,24	19630,42
1084,66	20131,08
1085,08	20951,56
1085,49	18908,20
1085,91	21326,09
1086,33	41289,93
1086,75	21366,69
1087,17	19725,72
1087,58	19995,22
1088,00	20092,70
1088,42	22088,84
1088,84	20247,29
1089,25	19347,76
1089,67	20127,97
1090,09	20137,31
1090,51	19539,28
1090,92	20318,90
1091,34	19836,61
1091,76	20391,56
1092,18	20255,59
1092,59	20334,46
1093,01	20136,27
1093,43	20449,70
1093,84	19832,46
1094,26	20420,63
1094,68	20812,26
1095,10	19243,24
1095,51	20137,31
1095,93	19732,98
1096,35	21003,56
1096,76	21068,04
1097,18	20941,16
1097,60	20343,81
1098,01	20124,86
1098,43	19485,43
1098,85	20168,43
1099,26	19748,52
1099,68	20427,89
1100,10	19103,60
1100,51	19717,44
1100,93	20194,37
1101,35	20265,97
1101,76	20607,56
1102,18	29949,77
1102,60	22086,75
1103,01	18248,41
1103,43	20263,89
1103,84	20041,88
1104,26	19351,90
1104,68	20150,79
1105,09	17997,85
1105,51	18648,87
1105,92	21369,81
1106,34	18639,58
1106,76	20694,82
1107,17	20493,31
1107,59	20602,36
1108,00	18261,82
1108,42	19892,58
1108,83	18395,94
1109,25	19514,42
1109,67	18664,36
1110,08	18720,14
1110,50	18091,66
1110,91	19403,65
1111,33	18576,59
1111,74	18510,51
1112,16	19969,30
1112,57	20114,49
1112,99	19120,15
1113,41	19456,44
1113,82	18993,99
1114,24	19782,71
1114,65	19300,15
1115,07	18559,03
1115,48	17963,84
1115,90	1845,78
1116,31	2215,93
1116,73	2176,03
1117,14	2187,00
>>>>>End Processed Spectral Data<<<<<
