SpectraSuite Data File
++++++++++++++++++++++++++++++++++++
Date: Wed Jul 27 14:09:26 EEST 2016
User: OO Maya
Dark Spectrum Present: No
Reference Spectrum Present: No
Number of Sampled Component Spectra: 1
Spectrometers: MAYP11278
Integration Time (usec): 15000000 (MAYP11278)
Spectra Averaged: 1 (MAYP11278)
Boxcar Smoothing: 0 (MAYP11278)
Correct for Electrical Dark: No (MAYP11278)
Strobe/Lamp Enabled: No (MAYP11278)
Correct for Detector Non-linearity: Yes (MAYP11278)
Correct for Stray Light: No (MAYP11278)
Number of Pixels in Processed Spectrum: 2068
>>>>>Begin Processed Spectral Data<<<<<
187,82	2297,75
188,30	2209,95
188,78	2176,03
189,26	2177,02
189,73	15949,20
190,21	17523,05
190,69	17420,15
191,17	17618,78
191,64	18714,98
192,12	17752,64
192,60	17225,75
193,07	16662,78
193,55	17838,13
194,03	17616,72
194,51	18135,99
194,98	17483,94
195,46	18766,63
195,94	17515,84
196,42	17846,37
196,89	20846,56
197,37	17878,31
197,85	16955,44
198,32	17473,65
198,80	16998,59
199,28	18330,94
199,76	18866,86
200,23	17690,85
200,71	17736,16
201,19	18802,79
201,66	18909,23
202,14	18600,34
202,62	16941,06
203,09	18341,25
203,57	17169,20
204,05	19003,30
204,53	19538,24
205,00	17402,66
205,48	17440,72
205,96	19597,27
206,43	17697,03
206,91	18430,00
207,39	21107,57
207,86	18468,19
208,34	18967,12
208,82	17927,77
209,29	19102,57
209,77	18743,90
210,25	18158,68
210,72	17894,80
211,20	18662,30
211,68	18174,15
212,15	17655,84
212,63	20117,60
213,11	18847,22
213,58	17893,77
214,06	20050,18
214,53	18550,77
215,01	19845,93
215,49	18753,20
215,96	18924,73
216,44	18877,19
216,92	18930,94
217,39	17511,73
217,87	18037,02
218,35	19663,56
218,82	16957,50
219,30	17719,68
219,77	17858,74
220,25	18367,05
220,73	21000,44
221,20	17678,49
221,68	19407,79
222,15	17547,75
222,63	19417,11
223,11	17964,87
223,58	19270,15
224,06	18123,62
224,53	17845,34
225,01	17346,08
225,49	18192,71
225,96	17612,60
226,44	18352,60
226,91	19436,77
227,39	18203,02
227,87	19535,13
228,34	19092,22
228,82	18980,56
229,29	18125,68
229,77	18190,65
230,24	17812,38
230,72	19279,46
231,20	19125,32
231,67	18415,55
232,15	18618,92
232,62	17504,52
233,10	18739,77
233,57	18648,87
234,05	22298,56
234,53	18846,19
235,00	17900,98
235,48	17594,07
235,95	17337,85
236,43	19652,17
236,90	20838,24
237,38	18005,06
237,85	18762,50
238,33	18591,04
238,80	18615,83
239,28	18263,88
239,75	17255,57
240,23	19171,86
240,71	19869,77
241,18	18751,13
241,66	18351,57
242,13	19437,81
242,61	19874,96
243,08	17382,08
243,56	17563,19
244,03	19242,21
244,51	20052,26
244,98	18226,75
245,46	19958,93
245,93	68393,61
246,41	17088,00
246,88	18727,37
247,36	18548,71
247,83	18599,30
248,31	18957,81
248,78	16916,40
249,26	18774,89
249,73	19337,41
250,21	18883,39
250,68	20164,28
251,16	18609,63
251,63	20798,74
252,10	20092,70
252,58	18070,01
253,05	20147,68
253,53	18770,76
254,00	18396,98
254,48	18644,74
254,95	18873,06
255,43	19314,64
255,90	17889,64
256,38	18867,89
256,85	19262,90
257,33	19682,21
257,80	22027,30
258,27	18807,96
258,75	18177,24
259,22	18885,46
259,70	19314,64
260,17	20514,08
260,65	18722,21
261,12	18108,15
261,59	19846,97
262,07	17936,01
262,54	19048,79
263,02	18368,08
263,49	17378,99
263,97	19367,42
264,44	19765,10
264,91	18266,97
265,39	18747,00
265,86	19288,77
266,34	19191,52
266,81	18285,54
267,28	18660,23
267,76	18875,12
268,23	19070,51
268,71	16980,10
269,18	17653,78
269,65	18004,03
270,13	19052,93
270,60	20047,07
271,08	18520,83
271,55	18581,75
272,02	17227,81
272,50	17576,57
272,97	16872,24
273,44	18638,54
273,92	22711,06
274,39	19389,16
274,87	19631,45
275,34	18164,87
275,81	18436,19
276,29	19162,55
276,76	19612,81
277,23	17426,32
277,71	18328,87
278,18	17581,72
278,65	23308,14
279,13	18219,53
279,60	18083,41
280,07	23097,85
280,55	19617,99
281,02	22376,85
281,50	18086,50
281,97	19741,27
282,44	18317,52
282,91	18480,58
283,39	19210,14
283,86	17607,45
284,33	17495,26
284,81	19321,88
285,28	18498,12
285,75	19049,83
286,23	18804,86
286,70	17267,91
287,17	19016,74
287,65	20716,64
288,12	18381,50
288,59	19296,01
289,07	16871,21
289,54	20201,63
290,01	17888,61
290,48	19089,12
290,96	17944,26
291,43	19140,83
291,90	21267,80
292,38	17939,11
292,85	19796,19
293,32	18043,20
293,79	19260,83
294,27	19138,76
294,74	18183,43
295,21	18548,71
295,69	18893,73
296,16	20824,73
296,63	20713,53
297,10	19522,71
297,58	19185,31
298,05	18996,06
298,52	18299,99
298,99	20590,94
299,47	18489,87
299,94	19189,45
300,41	18081,35
300,88	19750,59
301,36	19732,98
301,83	19646,99
302,30	17721,74
302,77	19434,70
303,25	19612,81
303,72	18018,46
304,19	18362,92
304,66	17955,59
305,13	19005,37
305,61	19113,94
306,08	19033,28
306,55	19535,13
307,02	18446,51
307,49	18375,30
307,97	19191,52
308,44	18482,64
308,91	19784,79
309,38	19937,16
309,86	19083,95
310,33	18753,20
310,80	19124,28
311,27	18039,08
311,74	19852,15
312,21	18543,55
312,69	20733,27
313,16	18100,94
313,63	18434,13
314,10	18957,81
314,57	18287,61
315,05	17977,24
315,52	19727,80
315,99	19603,49
316,46	18803,82
316,93	19616,95
317,40	19074,64
317,88	22169,17
318,35	18923,70
318,82	18592,08
319,29	17404,71
319,76	19074,64
320,23	20989,00
320,70	19780,64
321,18	18235,00
321,65	16965,72
322,12	17705,26
322,59	20788,35
323,06	18520,83
323,53	21655,17
324,00	17659,96
324,48	18968,15
324,95	18813,12
325,42	18167,96
325,89	18394,91
326,36	18348,48
326,83	19432,63
327,30	19250,49
327,77	19328,09
328,24	18975,39
328,72	18618,92
329,19	18210,24
329,66	18371,18
330,13	18019,50
330,60	19732,98
331,07	19425,39
331,54	20654,30
332,01	17990,64
332,48	20947,40
332,95	19594,16
333,43	19327,06
333,90	20277,38
334,37	19045,69
334,84	19411,93
335,31	23143,87
335,78	17753,67
336,25	18725,31
336,72	18528,06
337,19	19101,53
337,66	18394,91
338,13	18304,11
338,60	20550,43
339,07	19837,64
339,54	17703,20
340,01	18110,22
340,49	17790,75
340,96	19324,99
341,43	20037,74
341,90	18248,41
342,37	19103,60
342,84	19632,49
343,31	19063,27
343,78	18537,35
344,25	18771,79
344,72	18100,94
345,19	18810,02
345,66	19318,78
346,13	18269,04
346,60	17907,16
347,07	20726,00
347,54	18264,91
348,01	19911,24
348,48	19156,35
348,95	17537,46
349,42	18888,56
349,89	19681,17
350,36	18882,36
350,83	17740,28
351,30	19210,14
351,77	20856,95
352,24	19310,50
352,71	18732,54
353,18	18875,12
353,65	19453,34
354,12	19027,08
354,59	19646,99
355,06	19078,78
355,53	20613,79
356,00	18318,56
356,47	20500,58
356,94	17916,43
357,41	22313,18
357,88	19506,14
358,35	17501,43
358,82	17959,72
359,28	18150,43
359,75	18287,61
360,22	19740,23
360,69	20584,70
361,16	18302,05
361,63	18555,94
362,10	18730,47
362,57	18449,61
363,04	18576,59
363,51	21433,32
363,98	19520,64
364,45	17956,62
364,92	19441,95
365,39	18294,83
365,86	17630,10
366,32	19012,60
366,79	18811,06
367,26	32758,67
367,73	16981,13
368,20	17769,12
368,67	19660,46
369,14	17752,64
369,61	19823,13
370,08	19019,84
370,55	18439,29
371,02	27061,61
371,48	19165,66
371,95	18143,21
372,42	17273,05
372,89	17823,71
373,36	18780,06
373,83	17510,70
374,30	17898,92
374,77	19058,10
375,23	17075,67
375,70	20523,42
376,17	18435,16
376,64	17554,95
377,11	17706,29
377,58	19226,69
378,05	18784,19
378,51	18612,73
378,98	18814,16
379,45	18662,30
379,92	19395,37
380,39	21701,01
380,86	18841,02
381,33	20500,58
381,79	20379,10
382,26	17383,11
382,73	18987,79
383,20	18221,59
383,67	19626,27
384,14	18518,77
384,60	25051,29
385,07	18620,99
385,54	18076,19
386,01	18368,08
386,48	20727,04
386,94	17934,98
387,41	17669,22
387,88	19709,15
388,35	19329,13
388,82	20089,59
389,28	18011,25
389,75	19526,85
390,22	19016,74
390,69	19227,73
391,16	18976,42
391,62	18859,62
392,09	19066,37
392,56	18478,51
393,03	18362,92
393,50	21712,47
393,96	18757,33
394,43	20090,63
394,90	17831,95
395,37	19685,32
395,83	24647,87
396,30	17493,20
396,77	19388,12
397,24	19708,11
397,70	17667,16
398,17	18640,61
398,64	18099,91
399,11	17784,57
399,57	20052,26
400,04	17341,96
400,51	18598,27
400,98	18129,81
401,44	19097,40
401,91	18977,45
402,38	18839,99
402,84	17787,66
403,31	20444,51
403,78	18114,34
404,25	20296,06
404,71	20784,19
405,18	20307,48
405,65	17783,54
406,12	19716,40
406,58	19416,07
407,05	21077,40
407,52	18695,35
407,98	19016,74
408,45	19542,38
408,92	17643,48
409,38	19925,75
409,85	17707,32
410,32	20135,23
410,78	17985,48
411,25	19934,05
411,72	18480,58
412,18	16915,38
412,65	19266,01
413,12	18167,96
413,59	19200,83
414,05	19333,27
414,52	20694,82
414,98	18499,16
415,45	20638,72
415,92	18851,36
416,38	18823,45
416,85	20932,85
417,32	19066,37
417,78	18552,84
418,25	18838,95
418,72	18830,69
419,18	19612,81
419,65	17774,27
420,12	19623,16
420,58	17542,60
421,05	18596,21
421,51	18196,84
421,98	19313,61
422,45	18112,28
422,91	18650,94
423,38	19016,74
423,85	19513,39
424,31	18520,83
424,78	19787,90
425,24	18682,95
425,71	20153,91
426,18	18298,95
426,64	20104,11
427,11	19668,74
427,57	19837,64
428,04	17669,22
428,51	20046,03
428,97	19233,93
429,44	18714,98
429,90	19125,32
430,37	22803,01
430,83	17659,96
431,30	18630,28
431,77	20571,20
432,23	19857,34
432,70	18580,72
433,16	18149,40
433,63	18737,70
434,09	18522,90
434,56	19430,56
435,03	17589,95
435,49	19553,77
435,96	19113,94
436,42	17417,06
436,89	19683,25
437,35	19072,58
437,82	18961,95
438,28	18113,31
438,75	18381,50
439,21	23731,16
439,68	19123,25
440,14	19674,96
440,61	20200,59
441,07	17835,04
441,54	18408,33
442,00	21616,62
442,47	17658,93
442,94	19001,23
443,40	19215,31
443,87	17381,05
444,33	20522,39
444,80	19268,08
445,26	18612,73
445,73	18612,73
446,19	19301,19
446,65	18615,83
447,12	18868,92
447,58	18282,45
448,05	18176,21
448,51	19451,27
448,98	19453,34
449,44	18617,89
449,91	17940,14
450,37	17690,85
450,84	17892,74
451,30	18859,62
451,77	19525,81
452,23	17957,66
452,70	20079,22
453,16	18323,71
453,62	18597,24
454,09	18779,03
454,55	19227,73
455,02	18203,02
455,48	18738,73
455,95	19783,75
456,41	18101,97
456,88	20180,88
457,34	18571,42
457,80	18632,35
458,27	17494,23
458,73	18954,71
459,20	18488,83
459,66	19852,15
460,13	17941,17
460,59	17761,91
461,05	20234,83
461,52	19786,86
461,98	17949,41
462,45	17465,42
462,91	20064,70
463,37	18517,74
463,84	18880,29
464,30	18950,58
464,76	17633,19
465,23	18181,37
465,69	19782,71
466,16	18910,26
466,62	19330,16
467,08	19294,98
467,55	18606,53
468,01	19093,26
468,48	19227,73
468,94	18594,14
469,40	17781,48
469,87	19075,68
470,33	19089,12
470,79	18237,06
471,26	18275,23
471,72	17753,67
472,18	18128,78
472,65	18325,78
473,11	20259,74
473,57	18497,09
474,04	17917,47
474,50	18481,61
474,96	17547,75
475,43	18977,45
475,89	18674,69
476,35	19121,18
476,82	18586,91
477,28	18931,97
477,74	20477,73
478,21	18929,90
478,67	19841,79
479,13	17716,59
479,59	20837,20
480,06	19164,62
480,52	19050,86
480,98	17978,27
481,45	18606,53
481,91	18818,29
482,37	17620,83
482,84	18266,97
483,30	17244,26
483,76	18344,35
484,22	20574,32
484,69	18890,63
485,15	18616,86
485,61	16944,14
486,07	18328,87
486,54	17068,47
487,00	18979,52
487,46	17255,57
487,92	17190,79
488,39	17668,19
488,85	18971,25
489,31	18501,22
489,77	19802,40
490,24	17515,84
490,70	18688,12
491,16	17006,81
491,62	17861,83
492,09	16882,51
492,55	19772,35
493,01	18897,86
493,47	18604,47
493,94	18085,47
494,40	18287,61
494,86	17843,28
495,32	17750,58
495,78	18485,74
496,25	18097,84
496,71	18434,13
497,17	20749,90
497,63	19780,64
498,09	17623,92
498,56	18683,99
499,02	18190,65
499,48	21444,77
499,94	18590,01
500,40	17919,53
500,87	18290,70
501,33	17885,52
501,79	19262,90
502,25	18520,83
502,71	25599,28
503,17	18396,98
503,64	18946,44
504,10	17864,92
504,56	18892,69
505,02	18938,17
505,48	17524,08
505,94	18482,64
506,40	19617,99
506,87	18271,10
507,33	19010,54
507,79	18801,76
508,25	17825,77
508,71	17658,93
509,17	16947,22
509,63	18028,77
510,10	18338,16
510,56	17765,00
511,02	20084,41
511,48	19931,97
511,94	17620,83
512,40	17065,39
512,86	17991,67
513,32	19095,33
513,78	16577,60
514,25	19392,26
514,71	35100,54
515,17	16636,09
515,63	18768,69
516,09	19793,08
516,55	19277,39
517,01	21479,14
517,47	18927,84
517,93	18613,76
518,39	22947,27
518,85	18519,80
519,32	17918,50
519,78	17444,84
520,24	17739,25
520,70	18782,13
521,16	19092,22
521,62	19482,33
522,08	18466,12
522,54	17342,99
523,00	20613,79
523,46	19397,44
523,92	18341,25
524,38	20675,08
524,84	19118,08
525,30	19337,41
525,76	19998,33
526,22	18977,45
526,68	18634,41
527,14	17701,14
527,60	18338,16
528,06	19344,65
528,52	19230,83
528,98	18072,07
529,44	17513,78
529,90	19153,24
530,36	19281,53
530,82	16970,85
531,28	19703,97
531,74	18477,48
532,20	18519,80
532,66	18598,27
533,12	19092,22
533,58	18226,75
534,04	17355,33
534,50	18416,58
534,96	17861,83
535,42	18909,23
535,88	17905,10
536,34	19028,11
536,80	17575,54
537,26	19057,07
537,72	18424,84
538,18	18462,00
538,64	20695,86
539,10	19441,95
539,56	25267,88
540,02	17116,78
540,48	20608,59
540,94	18733,57
541,40	17413,97
541,86	19167,73
542,32	18962,98
542,78	18151,46
543,24	22057,55
543,69	17315,22
544,15	20846,56
544,61	19511,32
545,07	18331,97
545,53	18119,50
545,99	19588,99
546,45	18441,35
546,91	19067,41
547,37	19173,93
547,83	19046,72
548,29	18306,18
548,74	18239,12
549,20	17439,69
549,66	21204,32
550,12	18160,74
550,58	17348,13
551,04	18853,42
551,50	18826,55
551,96	20681,32
552,42	18904,06
552,87	17753,67
553,33	19025,01
553,79	18263,88
554,25	17583,77
554,71	18797,62
555,17	18616,86
555,63	20623,14
556,08	18639,58
556,54	20199,56
557,00	16914,35
557,46	18921,63
557,92	21363,56
558,38	17962,81
558,83	18502,25
559,29	17734,10
559,75	17824,74
560,21	17525,11
560,67	18572,46
561,13	18299,99
561,58	18898,89
562,04	17854,61
562,50	17715,56
562,96	18714,98
563,42	19807,59
563,87	17577,60
564,33	18977,45
564,79	18123,62
565,25	18182,40
565,71	18867,89
566,16	19855,26
566,62	18242,22
567,08	17872,13
567,54	18536,32
568,00	19520,64
568,45	17831,95
568,91	18538,39
569,37	19376,74
569,83	18606,53
570,28	18815,19
570,74	19230,83
571,20	19493,72
571,66	18508,45
572,11	18742,87
572,57	18884,43
573,03	17947,35
573,49	17961,78
573,94	18705,68
574,40	20413,36
574,86	19718,47
575,32	17426,32
575,77	18863,76
576,23	16762,36
576,69	19981,74
577,15	18201,99
577,60	18148,37
578,06	17393,40
578,52	20193,33
578,97	18243,25
579,43	17871,10
579,89	18677,79
580,34	18867,89
580,80	18440,32
581,26	18562,13
581,72	18634,41
582,17	18255,63
582,63	17321,39
583,09	18418,65
583,54	19025,01
584,00	18188,59
584,46	19179,10
584,91	17907,16
585,37	21968,90
585,83	18350,54
586,28	17967,96
586,74	18387,69
587,20	18266,97
587,65	19722,62
588,11	17407,80
588,57	19039,49
589,02	18475,41
589,48	17770,15
589,94	18984,69
590,39	19397,44
590,85	18130,84
591,30	17156,87
591,76	20332,39
592,22	17941,17
592,67	18941,27
593,13	18602,40
593,59	19609,70
594,04	18484,70
594,50	18379,43
594,95	20006,63
595,41	18214,37
595,87	17428,38
596,32	20389,48
596,78	19347,76
597,23	19936,12
597,69	18790,39
598,15	17204,16
598,60	18552,84
599,06	20178,81
599,51	17886,55
599,97	19307,40
600,43	19975,52
600,88	19156,35
601,34	19523,74
601,79	17053,06
602,25	22460,37
602,70	18018,46
603,16	18622,02
603,61	17623,92
604,07	16896,89
604,53	19326,02
604,98	18400,07
605,44	19226,69
605,89	18748,03
606,35	17030,45
606,80	18700,51
607,26	18085,47
607,71	18757,33
608,17	19160,49
608,62	18522,90
609,08	21649,96
609,53	19577,59
609,99	18426,90
610,44	18170,02
610,90	18725,31
611,35	17592,01
611,81	21023,32
612,26	19285,67
612,72	18749,06
613,17	22402,95
613,63	17331,68
614,08	17306,99
614,54	17439,69
614,99	17319,33
615,45	18281,42
615,90	18676,76
616,36	17425,29
616,81	18172,08
617,27	18473,35
617,72	19455,41
618,18	17810,32
618,63	18270,07
619,09	18259,75
619,54	19362,25
619,99	18395,94
620,45	19399,51
620,90	19793,08
621,36	18435,16
621,81	19753,70
622,27	20286,72
622,72	19809,66
623,18	18003,00
623,63	17735,13
624,08	19797,22
624,54	17139,39
624,99	18334,03
625,45	18768,69
625,90	17530,25
626,35	18402,14
626,81	18732,54
627,26	17542,60
627,72	19309,47
628,17	19623,16
628,62	17090,05
629,08	18330,94
629,53	18581,75
629,99	17753,67
630,44	19063,27
630,89	18290,70
631,35	19432,63
631,80	18861,69
632,26	19727,80
632,71	17721,74
633,16	18225,71
633,62	17680,55
634,07	18005,06
634,52	17535,40
634,98	18089,59
635,43	17691,88
635,88	17241,18
636,34	18318,56
636,79	18232,93
637,24	17582,75
637,70	19372,60
638,15	19660,46
638,60	18111,25
639,06	18468,19
639,51	17473,65
639,96	16834,24
640,42	18790,39
640,87	19598,31
641,32	17193,88
641,78	18095,78
642,23	18146,30
642,68	16699,73
643,14	17956,62
643,59	19411,93
644,04	17739,25
644,49	17377,97
644,95	17997,85
645,40	17408,83
645,85	18476,45
646,31	18587,94
646,76	19057,07
647,21	19298,08
647,66	18552,84
648,12	18952,64
648,57	17421,17
649,02	20054,33
649,47	19009,50
649,93	23584,52
650,38	17505,55
650,83	17584,80
651,28	17842,25
651,74	18629,25
652,19	17436,61
652,64	18360,86
653,09	17613,63
653,55	17726,89
654,00	18598,27
654,45	18911,30
654,90	18154,55
655,35	17255,57
655,81	19178,07
656,26	17616,72
656,71	18304,11
657,16	19131,52
657,62	19184,28
658,07	17625,98
658,52	18552,84
658,97	17565,25
659,42	24113,74
659,88	17956,62
660,33	19868,74
660,78	18222,62
661,23	17628,04
661,68	18252,53
662,13	17445,87
662,59	16667,91
663,04	19023,98
663,49	17960,75
663,94	17766,03
664,39	18104,03
664,84	17458,22
665,30	18696,38
665,75	17100,33
666,20	18456,83
666,65	18548,71
667,10	21728,10
667,55	20107,23
668,00	17554,95
668,46	18765,59
668,91	17440,72
669,36	21117,97
669,81	16692,55
670,26	17713,50
670,71	19874,96
671,16	18522,90
671,61	20334,46
672,06	21508,29
672,52	18466,12
672,97	18498,12
673,42	19775,46
673,87	22679,71
674,32	18745,97
674,77	18844,12
675,22	16940,03
675,67	17447,93
676,12	18633,38
676,57	18242,22
677,02	18105,06
677,47	17918,50
677,93	21734,36
678,38	17772,21
678,83	18048,36
679,28	18675,72
679,73	17694,97
680,18	18413,49
680,63	18323,71
681,08	16296,56
681,53	16449,36
681,98	18044,23
682,43	18366,02
682,88	19210,14
683,33	18988,83
683,78	18880,29
684,23	19850,08
684,68	18890,63
685,13	18691,22
685,58	18707,74
686,03	18170,02
686,48	17388,25
686,93	18613,76
687,38	17715,56
687,83	18644,74
688,28	18148,37
688,73	22071,11
689,18	19373,63
689,63	16932,84
690,08	18180,33
690,53	18270,07
690,98	17023,25
691,43	18199,93
691,88	16846,56
692,33	18533,22
692,78	18147,34
693,23	19659,42
693,68	18756,30
694,13	18487,80
694,58	18443,42
695,03	24367,60
695,48	18709,81
695,93	18576,59
696,38	20793,55
696,83	18201,99
697,28	17894,80
697,72	19020,88
698,17	17426,32
698,62	19278,42
699,07	19112,91
699,52	17530,25
699,97	18009,19
700,42	18956,78
700,87	19438,84
701,32	23383,50
701,77	17159,95
702,22	20345,88
702,67	17814,44
703,11	17938,07
703,56	18696,38
704,01	18354,67
704,46	18103,00
704,91	19941,30
705,36	19634,56
705,81	19526,85
706,26	17279,22
706,70	19176,00
707,15	18331,97
707,60	18328,87
708,05	18820,35
708,50	19571,38
708,95	18590,01
709,40	17976,21
709,84	18252,53
710,29	18240,15
710,74	17815,47
711,19	19186,35
711,64	18584,85
712,09	18492,96
712,53	17583,77
712,98	20943,24
713,43	18266,97
713,88	18452,71
714,33	20099,97
714,78	19449,20
715,22	18064,85
715,67	18535,29
716,12	17964,87
716,57	18021,56
717,02	17427,35
717,46	17290,54
717,91	18969,18
718,36	20588,86
718,81	17395,45
719,26	17180,51
719,70	18531,16
720,15	18079,29
720,60	17719,68
721,05	18572,46
721,49	17747,49
721,94	18913,36
722,39	18337,13
722,84	17150,70
723,28	16766,46
723,73	18351,57
724,18	16789,05
724,63	18890,63
725,07	16875,32
725,52	18313,40
725,97	18216,43
726,42	18423,81
726,86	20720,80
727,31	17341,96
727,76	19905,02
728,21	18836,89
728,65	17984,45
729,10	20050,18
729,55	17990,64
729,99	19429,53
730,44	17267,91
730,89	18430,00
731,33	18907,16
731,78	18783,16
732,23	18592,08
732,68	17507,61
733,12	19146,00
733,57	18774,89
734,02	17593,04
734,46	19222,55
734,91	19064,30
735,36	18609,63
735,80	21933,45
736,25	17526,13
736,70	18325,78
737,14	19407,79
737,59	19251,52
738,04	18537,35
738,48	18120,53
738,93	18695,35
739,37	16956,47
739,82	19787,90
740,27	19060,17
740,71	17426,32
741,16	18877,19
741,61	19017,77
742,05	18266,97
742,50	18472,32
742,94	17376,94
743,39	17585,83
743,84	18381,50
744,28	19579,66
744,73	19511,32
745,18	18832,75
745,62	19174,97
746,07	20214,08
746,51	16305,79
746,96	17292,59
747,40	17008,87
747,85	18751,13
748,30	18092,69
748,74	17831,95
749,19	18834,82
749,63	22003,32
750,08	18708,78
750,52	18140,12
750,97	17067,44
751,42	17813,41
751,86	17942,20
752,31	18079,29
752,75	20944,28
753,20	17684,67
753,64	18073,10
754,09	16962,63
754,53	18017,43
754,98	17279,22
755,42	18180,33
755,87	18458,90
756,31	19603,49
756,76	18080,32
757,20	20032,55
757,65	18393,88
758,09	18110,22
758,54	18087,53
758,98	18224,68
759,43	17134,25
759,87	18083,41
760,32	18923,70
760,76	18301,02
761,21	19127,39
761,65	19787,90
762,10	17978,27
762,54	17155,84
762,99	17931,89
763,43	19311,54
763,88	18350,54
764,32	17274,08
764,77	17735,13
765,21	18688,12
765,66	17310,08
766,10	17123,97
766,54	17650,69
766,99	18378,40
767,43	18606,53
767,88	18677,79
768,32	19147,04
768,77	18004,03
769,21	20679,24
769,66	17358,42
770,10	17910,25
770,54	17677,46
770,99	17127,06
771,43	18902,00
771,88	18470,25
772,32	18986,76
772,76	16815,75
773,21	17930,86
773,65	17713,50
774,10	16489,36
774,54	18193,74
774,98	17442,78
775,43	18432,06
775,87	18377,37
776,31	17267,91
776,76	17887,58
777,20	17857,71
777,65	18986,76
778,09	19102,57
778,53	17946,32
778,98	18477,48
779,42	21976,20
779,86	19985,89
780,31	18288,64
780,75	19691,53
781,19	18939,21
781,64	17394,43
782,08	18664,36
782,52	17224,72
782,97	17844,31
783,41	18975,39
783,85	19316,71
784,30	18228,81
784,74	17846,37
785,18	17904,07
785,63	17666,14
786,07	19092,22
786,51	19701,89
786,95	19681,17
787,40	17220,61
787,84	17675,40
788,28	18592,08
788,73	22030,43
789,17	17928,80
789,61	17825,77
790,05	18287,61
790,50	17300,82
790,94	17479,82
791,38	19626,27
791,82	17787,66
792,27	18351,57
792,71	17728,95
793,15	23782,50
793,59	19456,44
794,04	18195,80
794,48	18523,93
794,92	18285,54
795,36	17172,29
795,81	18925,77
796,25	18077,22
796,69	18238,09
797,13	17680,55
797,57	17184,62
798,02	18280,38
798,46	19629,38
798,90	18343,32
799,34	17218,55
799,79	20405,05
800,23	18699,48
800,67	17496,29
801,11	18779,03
801,55	18617,89
801,99	17388,25
802,44	19513,39
802,88	20467,35
803,32	19041,55
803,76	18533,22
804,20	18021,56
804,64	17829,89
805,09	20490,19
805,53	21148,14
805,97	20668,85
806,41	19023,98
806,85	21107,57
807,29	18063,82
807,74	18333,00
808,18	17119,86
808,62	18837,92
809,06	18320,62
809,50	17698,06
809,94	17398,54
810,38	18853,42
810,82	20229,65
811,27	22845,87
811,71	17728,95
812,15	17544,66
812,59	19094,29
813,03	20678,20
813,47	19239,11
813,91	18533,22
814,35	19224,62
814,79	18931,97
815,23	18475,41
815,67	17866,98
816,12	17541,57
816,56	17677,46
817,00	19252,56
817,44	18325,78
817,88	19766,13
818,32	17636,28
818,76	19116,01
819,20	19809,66
819,64	17790,75
820,08	19006,40
820,52	17980,33
820,96	18371,18
821,40	17471,59
821,84	20236,91
822,28	17292,59
822,72	18401,10
823,16	18559,03
823,60	17281,28
824,04	18348,48
824,48	18339,19
824,92	18645,77
825,36	18802,79
825,80	17347,11
826,24	18051,45
826,68	16340,65
827,12	18567,29
827,56	19229,79
828,00	19846,97
828,44	17674,37
828,88	19463,69
829,32	18701,55
829,76	17615,69
830,20	20404,01
830,64	18049,39
831,08	21332,33
831,52	19581,74
831,96	19231,86
832,40	16895,86
832,84	18254,60
833,28	18140,12
833,72	20066,78
834,16	19218,41
834,60	18118,46
835,04	17704,23
835,48	19606,59
835,91	18206,12
836,35	18607,56
836,79	18186,52
837,23	19337,41
837,67	17625,98
838,11	17715,56
838,55	18690,19
838,99	18328,87
839,43	20384,29
839,87	21324,01
840,30	18547,68
840,74	20002,48
841,18	16549,89
841,62	17417,06
842,06	17354,31
842,50	17998,88
842,94	19206,00
843,38	18374,27
843,81	19182,21
844,25	18329,90
844,69	17508,64
845,13	18874,09
845,57	17898,92
846,01	18981,59
846,45	17694,97
846,88	17582,75
847,32	18233,97
847,76	17559,07
848,20	17852,55
848,64	17830,92
849,08	18834,82
849,51	19829,35
849,95	19104,63
850,39	18033,93
850,83	19363,28
851,27	17367,68
851,70	18646,81
852,14	19679,10
852,58	17898,92
853,02	17827,83
853,46	19157,38
853,89	17143,50
854,33	19596,24
854,77	16861,97
855,21	17575,54
855,65	19666,67
856,08	20255,59
856,52	18344,35
856,96	18718,07
857,40	18440,32
857,83	17182,57
858,27	19944,41
858,71	16686,39
859,15	17498,35
859,58	17836,07
860,02	18183,43
860,46	18336,10
860,89	19172,90
861,33	17629,07
861,77	18288,64
862,21	18426,90
862,64	17722,77
863,08	17862,86
863,52	19127,39
863,95	17600,24
864,39	18108,15
864,83	18165,90
865,27	16961,61
865,70	18245,31
866,14	16715,13
866,58	19181,17
867,01	17411,91
867,45	18692,25
867,89	17981,36
868,32	17807,23
868,76	18657,13
869,20	18349,51
869,63	20029,44
870,07	21462,47
870,51	16970,85
870,94	18076,19
871,38	18297,92
871,82	17479,82
872,25	18648,87
872,69	18934,04
873,13	18137,02
873,56	19595,20
874,00	19336,37
874,43	17992,70
874,87	17287,45
875,31	19871,85
875,74	16464,74
876,18	18509,48
876,61	18113,31
877,05	18095,78
877,49	18591,04
877,92	18007,13
878,36	18716,01
878,79	18019,50
879,23	20326,16
879,67	17310,08
880,10	17341,96
880,54	17634,22
880,97	18476,45
881,41	19027,08
881,84	18132,90
882,28	18025,68
882,72	17680,55
883,15	18019,50
883,59	17280,25
884,02	18892,69
884,46	18452,71
884,89	18849,29
885,33	19316,71
885,76	17772,21
886,20	17621,86
886,63	20518,23
887,07	17442,78
887,50	17407,80
887,94	18088,56
888,37	17649,66
888,81	21772,92
889,24	16883,53
889,68	19374,67
890,11	17607,45
890,55	18800,72
890,98	18804,86
891,42	16972,91
891,85	17460,27
892,29	17924,68
892,72	17241,18
893,16	17770,15
893,59	18699,48
894,03	17860,80
894,46	19120,15
894,90	17849,46
895,33	17341,96
895,77	18363,95
896,20	18876,16
896,63	17424,26
897,07	17259,68
897,50	17135,28
897,94	18376,34
898,37	19619,02
898,81	17406,77
899,24	17363,56
899,68	17458,22
900,11	19302,22
900,54	18800,72
900,98	17733,07
901,41	20580,55
901,85	20931,81
902,28	17375,91
902,71	17670,25
903,15	20335,50
903,58	17913,34
904,02	18794,52
904,45	17550,84
904,88	17747,49
905,32	16936,95
905,75	19922,64
906,18	18257,69
906,62	19426,42
907,05	18526,00
907,48	17965,90
907,92	18975,39
908,35	20198,52
908,79	17953,53
909,22	17032,50
909,65	18562,13
910,09	18610,66
910,52	17742,34
910,95	17622,89
911,38	17800,02
911,82	18565,23
912,25	17821,65
912,68	18743,90
913,12	18730,47
913,55	17917,47
913,98	17044,83
914,42	17460,27
914,85	17760,88
915,28	17595,10
915,72	19439,88
916,15	17702,17
916,58	19417,11
917,01	17830,92
917,45	19283,60
917,88	17474,68
918,31	18055,57
918,74	17855,64
919,18	18713,94
919,61	19318,78
920,04	18113,31
920,47	20445,54
920,91	18838,95
921,34	17894,80
921,77	17278,20
922,20	17125,00
922,64	18611,69
923,07	20232,76
923,50	18882,36
923,93	16713,08
924,37	18799,69
924,80	17290,54
925,23	19282,56
925,66	20978,60
926,09	17957,66
926,53	18942,31
926,96	17031,48
927,39	20980,68
927,82	18298,95
928,25	17071,55
928,69	19208,07
929,12	17734,10
929,55	18447,55
929,98	19128,42
930,41	17374,88
930,84	18687,09
931,28	16528,35
931,71	20471,50
932,14	19322,92
932,57	21662,46
933,00	18028,77
933,43	19606,59
933,86	19387,09
934,30	19056,03
934,73	18576,59
935,16	17138,36
935,59	17926,74
936,02	17426,32
936,45	18663,33
936,88	17170,23
937,31	19083,95
937,75	17689,82
938,18	17801,05
938,61	18980,56
939,04	17211,36
939,47	18333,00
939,90	19430,56
940,33	21183,51
940,76	17581,72
941,19	19547,56
941,62	17466,45
942,05	17826,80
942,48	19246,35
942,91	17199,02
943,35	16949,28
943,78	19112,91
944,21	18789,36
944,64	19047,76
945,07	18272,13
945,50	18370,15
945,93	18447,55
946,36	19862,52
946,79	18057,64
947,22	18353,64
947,65	18815,19
948,08	17038,67
948,51	17004,76
948,94	17299,79
949,37	21466,64
949,80	19844,90
950,23	17976,21
950,66	17523,05
951,09	18691,22
951,52	16850,67
951,95	19285,67
952,38	17753,67
952,81	20706,25
953,24	17025,31
953,67	17528,19
954,10	17760,88
954,53	17472,62
954,96	17860,80
955,39	18742,87
955,82	17389,28
956,25	18987,79
956,68	21857,34
957,11	17237,06
957,53	18633,38
957,96	18380,46
958,39	17679,52
958,82	17638,34
959,25	17509,67
959,68	16391,92
960,11	18148,37
960,54	18802,79
960,97	18720,14
961,40	19397,44
961,83	19075,68
962,26	17790,75
962,68	18312,37
963,11	17663,05
963,54	18256,66
963,97	17934,98
964,40	17451,01
964,83	19187,38
965,26	17698,06
965,69	18099,91
966,11	18872,02
966,54	17319,33
966,97	17675,40
967,40	19525,81
967,83	23672,50
968,26	19233,93
968,69	18060,73
969,11	18741,83
969,54	17171,26
969,97	17717,62
970,40	18939,21
970,83	17823,71
971,26	18242,22
971,68	16987,29
972,11	17401,63
972,54	17895,83
972,97	18792,46
973,40	17640,40
973,82	19000,20
974,25	18483,67
974,68	17748,52
975,11	17570,39
975,54	17336,82
975,96	18484,70
976,39	17149,67
976,82	18895,79
977,25	18299,99
977,67	17980,33
978,10	18100,94
978,53	17837,10
978,96	19271,18
979,38	18926,80
979,81	17559,07
980,24	18497,09
980,67	19548,60
981,09	18215,40
981,52	18103,00
981,95	17670,25
982,38	17998,88
982,80	17469,53
983,23	19558,95
983,66	19063,27
984,08	17197,99
984,51	16363,21
984,94	17996,82
985,37	18822,42
985,79	17681,58
986,22	17403,68
986,65	18677,79
987,07	18133,93
987,50	18334,03
987,93	18159,71
988,35	18467,16
988,78	18022,59
989,21	17934,98
989,63	18917,50
990,06	18088,56
990,49	18588,98
990,91	20419,59
991,34	17693,94
991,77	17423,23
992,19	18197,87
992,62	17640,40
993,05	17681,58
993,47	18865,82
993,90	19088,09
994,32	18407,30
994,75	18246,34
995,18	16828,07
995,60	17086,97
996,03	16421,66
996,45	19456,44
996,88	19210,14
997,31	17471,59
997,73	18362,92
998,16	17302,88
998,58	19895,69
999,01	18085,47
999,44	18249,44
999,86	19818,99
1000,29	17388,25
1000,71	18346,41
1001,14	18860,66
1001,56	18268,01
1001,99	18465,09
1002,41	18057,64
1002,84	18923,70
1003,27	17276,14
1003,69	18676,76
1004,12	18451,67
1004,54	19777,53
1004,97	17963,84
1005,39	16792,13
1005,82	18705,68
1006,24	18111,25
1006,67	17481,88
1007,09	16896,89
1007,52	17926,74
1007,94	17723,80
1008,37	22955,63
1008,79	19387,09
1009,22	19171,86
1009,64	18518,77
1010,07	18897,86
1010,49	19466,80
1010,92	17882,43
1011,34	18918,53
1011,77	18347,44
1012,19	18572,46
1012,62	18751,13
1013,04	17249,40
1013,46	20020,11
1013,89	16659,70
1014,31	19042,59
1014,74	17517,90
1015,16	18328,87
1015,59	17386,19
1016,01	18896,83
1016,44	17768,09
1016,86	40340,58
1017,28	17844,31
1017,71	16795,21
1018,13	21942,83
1018,56	19665,64
1018,98	19081,88
1019,40	17654,81
1019,83	18147,34
1020,25	18677,79
1020,68	18685,02
1021,10	18873,06
1021,52	18182,40
1021,95	22968,18
1022,37	19538,24
1022,79	19287,74
1023,22	19148,07
1023,64	18548,71
1024,07	18723,24
1024,49	19118,08
1024,91	17432,49
1025,34	17410,89
1025,76	21186,64
1026,18	19126,35
1026,61	18729,44
1027,03	18433,10
1027,45	18566,26
1027,88	17560,10
1028,30	21309,44
1028,72	18547,68
1029,15	18256,66
1029,57	18699,48
1029,99	20238,99
1030,41	17086,97
1030,84	18440,32
1031,26	19068,44
1031,68	17734,10
1032,11	19581,74
1032,53	17559,07
1032,95	17484,97
1033,37	18890,63
1033,80	19344,65
1034,22	17706,29
1034,64	20763,41
1035,06	17785,60
1035,49	17803,11
1035,91	18524,96
1036,33	16887,64
1036,75	19139,80
1037,18	19312,57
1037,60	19294,98
1038,02	19598,31
1038,44	20271,15
1038,87	18040,11
1039,29	17976,21
1039,71	18695,35
1040,13	17839,16
1040,55	20045,00
1040,98	19803,44
1041,40	19304,29
1041,82	19489,57
1042,24	18445,48
1042,66	19374,67
1043,09	17317,28
1043,51	18132,90
1043,93	17807,23
1044,35	17100,33
1044,77	18126,71
1045,20	19004,33
1045,62	17439,69
1046,04	18823,45
1046,46	19291,87
1046,88	17502,46
1047,30	19414,00
1047,72	19156,35
1048,15	19533,06
1048,57	18097,84
1048,99	18110,22
1049,41	18934,04
1049,83	19493,72
1050,25	20759,25
1050,67	19886,36
1051,09	18536,32
1051,52	18861,69
1051,94	16267,85
1052,36	18638,54
1052,78	16743,88
1053,20	18007,13
1053,62	17685,70
1054,04	18785,22
1054,46	18954,71
1054,88	20918,29
1055,30	19791,01
1055,72	19584,84
1056,14	18825,52
1056,57	23515,40
1056,99	17452,04
1057,41	18961,95
1057,83	19059,13
1058,25	17912,31
1058,67	18049,39
1059,09	17808,26
1059,51	19549,63
1059,93	18644,74
1060,35	18105,06
1060,77	19320,85
1061,19	19765,10
1061,61	18646,81
1062,03	18184,46
1062,45	17541,57
1062,87	19288,77
1063,29	19439,88
1063,71	18026,71
1064,13	17491,14
1064,55	16995,51
1064,97	19628,34
1065,39	18499,16
1065,81	18279,35
1066,23	18591,04
1066,65	17951,47
1067,07	20651,19
1067,49	18452,71
1067,91	17874,19
1068,33	17162,01
1068,75	19434,70
1069,17	19807,59
1069,59	19601,41
1070,00	18089,59
1070,42	19242,21
1070,84	17821,65
1071,26	17250,43
1071,68	17222,67
1072,10	19288,77
1072,52	18184,46
1072,94	17125,00
1073,36	17677,46
1073,78	17845,34
1074,20	18475,41
1074,62	17671,28
1075,03	17662,02
1075,45	18132,90
1075,87	19436,77
1076,29	17908,19
1076,71	19282,56
1077,13	20327,20
1077,55	16540,66
1077,97	18631,32
1078,38	17926,74
1078,80	18116,40
1079,22	18708,78
1079,64	18235,00
1080,06	17982,39
1080,48	18855,49
1080,89	18278,32
1081,31	18124,65
1081,73	18384,59
1082,15	18287,61
1082,57	19558,95
1082,99	18370,15
1083,40	17929,83
1083,82	20075,07
1084,24	17453,07
1084,66	17873,16
1085,08	18784,19
1085,49	16878,40
1085,91	19119,11
1086,33	37949,97
1086,75	19011,57
1087,17	17671,28
1087,58	17653,78
1088,00	17905,10
1088,42	19584,84
1088,84	18203,02
1089,25	17315,22
1089,67	17732,04
1090,09	18047,33
1090,51	17339,90
1090,92	18104,03
1091,34	17774,27
1091,76	18276,26
1092,18	17917,47
1092,59	18380,46
1093,01	18006,10
1093,43	18184,46
1093,84	17495,26
1094,26	18190,65
1094,68	18693,28
1095,10	17260,71
1095,51	18216,43
1095,93	17605,39
1096,35	18948,51
1096,76	19017,77
1097,18	18603,43
1097,60	18217,46
1098,01	17876,25
1098,43	17539,51
1098,85	17927,77
1099,26	17724,83
1099,68	18280,38
1100,10	17111,64
1100,51	17553,92
1100,93	17971,05
1101,35	18023,62
1101,76	18513,61
1102,18	26899,00
1102,60	19956,85
1103,01	16151,01
1103,43	18223,65
1103,84	17857,71
1104,26	17321,39
1104,68	18048,36
1105,09	16188,93
1105,51	16869,16
1105,92	19190,48
1106,34	16765,44
1106,76	18735,64
1107,17	18417,62
1107,59	18426,90
1108,00	16436,02
1108,42	17673,34
1108,83	16332,44
1109,25	17301,85
1109,67	16702,81
1110,08	16763,38
1110,50	16234,03
1110,91	17412,94
1111,33	16770,57
1111,74	16591,96
1112,16	17746,46
1112,57	18101,97
1112,99	16914,35
1113,41	17431,46
1113,82	16995,51
1114,24	17728,95
1114,65	17532,31
1115,07	16672,02
1115,48	16217,63
1115,90	1882,69
1116,31	2222,92
1116,73	2180,02
1117,14	2179,02
>>>>>End Processed Spectral Data<<<<<
